field,G intensity,a.u.
  3019.0	  3255
  3019.1	  3255
  3019.2	  3259
  3019.3	  3258
  3019.4	  3256
  3019.5	  3263
  3019.6	  3267
  3019.7	  3263
  3019.8	  3264
  3019.9	  3264
  3020.0	  3263
  3020.1	  3266
  3020.2	  3268
  3020.3	  3271
  3020.4	  3273
  3020.5	  3276
  3020.6	  3279
  3020.7	  3283
  3020.8	  3287
  3020.9	  3289
  3021.0	  3292
  3021.1	  3297
  3021.2	  3301
  3021.3	  3304
  3021.4	  3309
  3021.5	  3314
  3021.6	  3317
  3021.7	  3320
  3021.8	  3325
  3021.9	  3331
  3022.0	  3333
  3022.1	  3337
  3022.2	  3342
  3022.3	  3347
  3022.4	  3352
  3022.5	  3357
  3022.6	  3362
  3022.7	  3367
  3022.8	  3369
  3022.9	  3372
 3023.01	  3378
 3023.11	  3382
 3023.21	  3386
 3023.31	  3390
 3023.41	  3390
 3023.51	  3391
 3023.61	  3397
 3023.71	  3402
 3023.81	  3403
 3023.91	  3407
 3024.01	  3412
 3024.11	  3416
 3024.21	  3420
 3024.31	  3424
 3024.41	  3427
 3024.51	  3431
 3024.61	  3435
 3024.71	  3436
 3024.81	  3438
 3024.91	  3442
 3025.01	  3443
 3025.11	  3444
 3025.21	  3448
 3025.31	  3450
 3025.41	  3453
 3025.51	  3456
 3025.61	  3458
 3025.71	  3460
 3025.81	  3462
 3025.91	  3465
 3026.01	  3471
 3026.11	  3473
 3026.21	  3475
 3026.31	  3479
 3026.41	  3486
 3026.51	  3488
 3026.61	  3490
 3026.71	  3493
 3026.81	  3500
 3026.91	  3503
 3027.01	  3502
 3027.11	  3509
 3027.21	  3517
 3027.31	  3517
 3027.41	  3520
 3027.51	  3521
 3027.61	  3521
 3027.71	  3524
 3027.81	  3527
 3027.91	  3530
 3028.01	  3533
 3028.11	  3535
 3028.21	  3539
 3028.31	  3542
 3028.41	  3542
 3028.51	  3544
 3028.61	  3545
 3028.71	  3546
 3028.81	  3548
 3028.91	  3550
 3029.01	  3552
 3029.11	  3555
 3029.21	  3558
 3029.31	  3560
 3029.41	  3561
 3029.51	  3564
 3029.61	  3566
 3029.71	  3567
 3029.81	  3571
 3029.91	  3575
 3030.01	  3578
 3030.11	  3580
 3030.21	  3582
 3030.31	  3585
 3030.41	  3583
 3030.51	  3584
 3030.61	  3586
 3030.71	  3585
 3030.81	  3587
 3030.91	  3592
 3031.02	  3589
 3031.12	  3586
 3031.22	  3590
 3031.32	  3593
 3031.42	  3593
 3031.52	  3595
 3031.62	  3596
 3031.72	  3596
 3031.82	  3597
 3031.92	  3598
 3032.02	  3601
 3032.12	  3600
 3032.22	  3600
 3032.32	  3599
 3032.42	  3597
 3032.52	  3598
 3032.62	  3599
 3032.72	  3599
 3032.82	  3600
 3032.92	  3600
 3033.02	  3600
 3033.12	  3601
 3033.22	  3602
 3033.32	  3602
 3033.42	  3600
 3033.52	  3601
 3033.62	  3603
 3033.72	  3604
 3033.82	  3601
 3033.92	  3605
 3034.02	  3607
 3034.12	  3603
 3034.22	  3598
 3034.32	  3599
 3034.42	  3600
 3034.52	  3597
 3034.62	  3593
 3034.72	  3595
 3034.82	  3597
 3034.92	  3597
 3035.02	  3600
 3035.12	  3599
 3035.22	  3599
 3035.32	  3602
 3035.42	  3604
 3035.52	  3601
 3035.62	  3600
 3035.72	  3598
 3035.82	  3594
 3035.92	  3592
 3036.02	  3593
 3036.12	  3593
 3036.22	  3593
 3036.32	  3592
 3036.42	  3589
 3036.52	  3586
 3036.62	  3584
 3036.72	  3583
 3036.82	  3580
 3036.92	  3577
 3037.02	  3575
 3037.12	  3574
 3037.22	  3569
 3037.32	  3568
 3037.42	  3570
 3037.52	  3569
 3037.62	  3568
 3037.72	  3567
 3037.82	  3563
 3037.92	  3561
 3038.02	  3559
 3038.12	  3556
 3038.22	  3553
 3038.32	  3548
 3038.42	  3549
 3038.52	  3549
 3038.62	  3542
 3038.72	  3535
 3038.82	  3535
 3038.92	  3533
 3039.03	  3531
 3039.13	  3529
 3039.23	  3526
 3039.33	  3524
 3039.43	  3522
 3039.53	  3518
 3039.63	  3513
 3039.73	  3510
 3039.83	  3507
 3039.93	  3503
 3040.03	  3500
 3040.13	  3497
 3040.23	  3493
 3040.33	  3491
 3040.43	  3490
 3040.53	  3489
 3040.63	  3489
 3040.73	  3487
 3040.83	  3485
 3040.93	  3479
 3041.03	  3473
 3041.13	  3472
 3041.23	  3470
 3041.33	  3467
 3041.43	  3463
 3041.53	  3460
 3041.63	  3459
 3041.73	  3456
 3041.83	  3451
 3041.93	  3448
 3042.03	  3444
 3042.13	  3438
 3042.23	  3431
 3042.33	  3427
 3042.43	  3421
 3042.53	  3418
 3042.63	  3415
 3042.73	  3408
 3042.83	  3401
 3042.93	  3395
 3043.03	  3389
 3043.13	  3385
 3043.23	  3381
 3043.33	  3378
 3043.43	  3374
 3043.53	  3370
 3043.63	  3364
 3043.73	  3358
 3043.83	  3353
 3043.93	  3349
 3044.03	  3343
 3044.13	  3340
 3044.23	  3339
 3044.33	  3335
 3044.43	  3332
 3044.53	  3327
 3044.63	  3321
 3044.73	  3317
 3044.83	  3312
 3044.93	  3307
 3045.03	  3302
 3045.13	  3298
 3045.23	  3294
 3045.33	  3292
 3045.43	  3285
 3045.53	  3279
 3045.63	  3273
 3045.73	  3268
 3045.83	  3261
 3045.93	  3251
 3046.03	  3247
 3046.13	  3246
 3046.23	  3237
 3046.33	  3229
 3046.43	  3225
 3046.53	  3219
 3046.63	  3213
 3046.73	  3209
 3046.83	  3203
 3046.93	  3197
 3047.04	  3190
 3047.14	  3183
 3047.24	  3176
 3047.34	  3168
 3047.44	  3160
 3047.54	  3152
 3047.64	  3145
 3047.74	  3137
 3047.84	  3131
 3047.94	  3125
 3048.04	  3119
 3048.14	  3113
 3048.24	  3107
 3048.34	  3101
 3048.44	  3097
 3048.54	  3091
 3048.64	  3084
 3048.74	  3081
 3048.84	  3079
 3048.94	  3074
 3049.04	  3068
 3049.14	  3063
 3049.24	  3060
 3049.34	  3051
 3049.44	  3043
 3049.54	  3036
 3049.64	  3031
 3049.74	  3023
 3049.84	  3017
 3049.94	  3008
 3050.04	  2999
 3050.14	  2993
 3050.24	  2989
 3050.34	  2979
 3050.44	  2972
 3050.54	  2966
 3050.64	  2958
 3050.74	  2949
 3050.84	  2942
 3050.94	  2935
 3051.04	  2929
 3051.14	  2923
 3051.24	  2917
 3051.34	  2913
 3051.44	  2906
 3051.54	  2900
 3051.64	  2894
 3051.74	  2887
 3051.84	  2880
 3051.94	  2873
 3052.04	  2867
 3052.14	  2861
 3052.24	  2855
 3052.34	  2848
 3052.44	  2841
 3052.54	  2834
 3052.64	  2828
 3052.74	  2818
 3052.84	  2813
 3052.94	  2807
 3053.04	  2800
 3053.14	  2790
 3053.24	  2785
 3053.34	  2780
 3053.44	  2770
 3053.54	  2758
 3053.64	  2756
 3053.74	  2755
 3053.84	  2745
 3053.94	  2738
 3054.04	  2731
 3054.14	  2723
 3054.24	  2715
 3054.34	  2706
 3054.44	  2698
 3054.54	  2691
 3054.64	  2685
 3054.74	  2679
 3054.84	  2670
 3054.94	  2663
 3055.05	  2656
 3055.15	  2648
 3055.25	  2640
 3055.35	  2633
 3055.45	  2626
 3055.55	  2621
 3055.65	  2616
 3055.75	  2611
 3055.85	  2606
 3055.95	  2599
 3056.05	  2594
 3056.15	  2587
 3056.25	  2579
 3056.35	  2573
 3056.45	  2567
 3056.55	  2557
 3056.65	  2549
 3056.75	  2543
 3056.85	  2536
 3056.95	  2528
 3057.05	  2521
 3057.15	  2515
 3057.25	  2505
 3057.35	  2498
 3057.45	  2492
 3057.55	  2482
 3057.65	  2470
 3057.75	  2466
 3057.85	  2463
 3057.95	  2456
 3058.05	  2452
 3058.15	  2447
 3058.25	  2441
 3058.35	  2434
 3058.45	  2426
 3058.55	  2416
 3058.65	  2408
 3058.75	  2402
 3058.85	  2396
 3058.95	  2391
 3059.05	  2385
 3059.15	  2378
 3059.25	  2369
 3059.35	  2361
 3059.45	  2352
 3059.55	  2346
 3059.65	  2340
 3059.75	  2335
 3059.85	  2328
 3059.95	  2321
 3060.05	  2315
 3060.15	  2310
 3060.25	  2301
 3060.35	  2295
 3060.45	  2292
 3060.55	  2291
 3060.65	  2285
 3060.75	  2276
 3060.85	  2271
 3060.95	  2267
 3061.05	  2259
 3061.15	  2248
 3061.25	  2245
 3061.35	  2242
 3061.45	  2233
 3061.55	  2227
 3061.65	  2221
 3061.75	  2214
 3061.85	  2208
 3061.95	  2201
 3062.05	  2197
 3062.15	  2192
 3062.25	  2187
 3062.35	  2182
 3062.45	  2175
 3062.55	  2168
 3062.65	  2161
 3062.75	  2153
 3062.85	  2145
 3062.95	  2138
 3063.06	  2131
 3063.16	  2125
 3063.26	  2119
 3063.36	  2114
 3063.46	  2108
 3063.56	  2102
 3063.66	  2095
 3063.76	  2088
 3063.86	  2080
 3063.96	  2075
 3064.06	  2070
 3064.16	  2066
 3064.26	  2064
 3064.36	  2060
 3064.46	  2057
 3064.56	  2051
 3064.66	  2049
 3064.76	  2044
 3064.86	  2037
 3064.96	  2036
 3065.06	  2037
 3065.16	  2027
 3065.26	  2019
 3065.36	  2017
 3065.46	  2012
 3065.56	  2004
 3065.66	  1998
 3065.76	  1991
 3065.86	  1985
 3065.96	  1980
 3066.06	  1974
 3066.16	  1968
 3066.26	  1962
 3066.36	  1958
 3066.46	  1953
 3066.56	  1948
 3066.66	  1943
 3066.76	  1937
 3066.86	  1931
 3066.96	  1925
 3067.06	  1918
 3067.16	  1913
 3067.26	  1908
 3067.36	  1902
 3067.46	  1896
 3067.56	  1889
 3067.66	  1885
 3067.76	  1883
 3067.86	  1879
 3067.96	  1875
 3068.06	  1874
 3068.16	  1874
 3068.26	  1868
 3068.36	  1863
 3068.46	  1861
 3068.56	  1858
 3068.66	  1850
 3068.76	  1844
 3068.86	  1841
 3068.96	  1838
 3069.06	  1831
 3069.16	  1831
 3069.26	  1827
 3069.36	  1823
 3069.46	  1820
 3069.56	  1816
 3069.66	  1811
 3069.76	  1807
 3069.86	  1803
 3069.96	  1800
 3070.06	  1797
 3070.16	  1794
 3070.26	  1791
 3070.36	  1789
 3070.46	  1786
 3070.56	  1782
 3070.66	  1779
 3070.76	  1775
 3070.86	  1772
 3070.96	  1770
 3071.07	  1765
 3071.17	  1761
 3071.27	  1757
 3071.37	  1752
 3071.47	  1749
 3071.57	  1745
 3071.67	  1742
 3071.77	  1741
 3071.87	  1739
 3071.97	  1735
 3072.07	  1731
 3072.17	  1729
 3072.27	  1726
 3072.37	  1721
 3072.47	  1714
 3072.57	  1714
 3072.67	  1716
 3072.77	  1707
 3072.87	  1701
 3072.97	  1700
 3073.07	  1697
 3073.17	  1694
 3073.27	  1691
 3073.37	  1688
 3073.47	  1687
 3073.57	  1687
 3073.67	  1685
 3073.77	  1683
 3073.87	  1681
 3073.97	  1680
 3074.07	  1679
 3074.17	  1677
 3074.27	  1673
 3074.37	  1670
 3074.47	  1667
 3074.57	  1664
 3074.67	  1661
 3074.77	  1658
 3074.87	  1656
 3074.97	  1656
 3075.07	  1653
 3075.17	  1650
 3075.27	  1649
 3075.37	  1648
 3075.47	  1645
 3075.57	  1642
 3075.67	  1642
 3075.77	  1642
 3075.87	  1638
 3075.97	  1636
 3076.07	  1636
 3076.17	  1635
 3076.27	  1635
 3076.37	  1634
 3076.47	  1631
 3076.57	  1625
 3076.67	  1625
 3076.77	  1626
 3076.87	  1623
 3076.97	  1621
 3077.07	  1621
 3077.17	  1620
 3077.27	  1618
 3077.37	  1618
 3077.47	  1618
 3077.57	  1618
 3077.67	  1618
 3077.77	  1618
 3077.87	  1616
 3077.97	  1615
 3078.07	  1615
 3078.17	  1613
 3078.27	  1611
 3078.37	  1609
 3078.47	  1606
 3078.57	  1603
 3078.67	  1601
 3078.77	  1599
 3078.87	  1597
 3078.97	  1595
 3079.08	  1595
 3079.18	  1595
 3079.28	  1593
 3079.38	  1594
 3079.48	  1596
 3079.58	  1592
 3079.68	  1588
 3079.78	  1589
 3079.88	  1589
 3079.98	  1587
 3080.08	  1582
 3080.18	  1585
 3080.28	  1589
 3080.38	  1585
 3080.48	  1585
 3080.58	  1586
 3080.68	  1583
 3080.78	  1583
 3080.88	  1581
 3080.98	  1580
 3081.08	  1579
 3081.18	  1580
 3081.28	  1579
 3081.38	  1579
 3081.48	  1580
 3081.58	  1580
 3081.68	  1582
 3081.78	  1583
 3081.88	  1582
 3081.98	  1581
 3082.08	  1581
 3082.18	  1581
 3082.28	  1580
 3082.38	  1577
 3082.48	  1576
 3082.58	  1576
 3082.68	  1578
 3082.78	  1579
 3082.88	  1582
 3082.98	  1583
 3083.08	  1583
 3083.18	  1585
 3083.28	  1587
 3083.38	  1590
 3083.48	  1589
 3083.58	  1590
 3083.68	  1590
 3083.78	  1589
 3083.88	  1590
 3083.98	  1593
 3084.08	  1590
 3084.18	  1585
 3084.28	  1587
 3084.38	  1589
 3084.48	  1588
 3084.58	  1591
 3084.68	  1592
 3084.78	  1594
 3084.88	  1595
 3084.98	  1595
 3085.08	  1596
 3085.18	  1598
 3085.28	  1599
 3085.38	  1599
 3085.48	  1599
 3085.58	  1600
 3085.68	  1601
 3085.78	  1603
 3085.88	  1605
 3085.98	  1607
 3086.08	  1610
 3086.18	  1611
 3086.28	  1613
 3086.38	  1614
 3086.48	  1614
 3086.58	  1615
 3086.68	  1616
 3086.78	  1615
 3086.88	  1615
 3086.98	  1616
 3087.09	  1620
 3087.19	  1618
 3087.29	  1616
 3087.39	  1622
 3087.49	  1628
 3087.59	  1628
 3087.69	  1625
 3087.79	  1630
 3087.89	  1634
 3087.99	  1633
 3088.09	  1636
 3088.19	  1635
 3088.29	  1635
 3088.39	  1637
 3088.49	  1638
 3088.59	  1641
 3088.69	  1643
 3088.79	  1645
 3088.89	  1646
 3088.99	  1648
 3089.09	  1649
 3089.19	  1649
 3089.29	  1649
 3089.39	  1649
 3089.49	  1650
 3089.59	  1651
 3089.69	  1652
 3089.79	  1654
 3089.89	  1656
 3089.99	  1658
 3090.09	  1660
 3090.19	  1664
 3090.29	  1667
 3090.39	  1670
 3090.49	  1673
 3090.59	  1676
 3090.69	  1678
 3090.79	  1680
 3090.89	  1681
 3090.99	  1682
 3091.09	  1685
 3091.19	  1688
 3091.29	  1690
 3091.39	  1690
 3091.49	  1697
 3091.59	  1705
 3091.69	  1705
 3091.79	  1704
 3091.89	  1708
 3091.99	  1710
 3092.09	  1711
 3092.19	  1713
 3092.29	  1716
 3092.39	  1718
 3092.49	  1720
 3092.59	  1724
 3092.69	  1728
 3092.79	  1732
 3092.89	  1737
 3092.99	  1741
 3093.09	  1745
 3093.19	  1749
 3093.29	  1751
 3093.39	  1755
 3093.49	  1756
 3093.59	  1757
 3093.69	  1761
 3093.79	  1764
 3093.89	  1766
 3093.99	  1769
 3094.09	  1770
 3094.19	  1774
 3094.29	  1778
 3094.39	  1779
 3094.49	  1780
 3094.59	  1783
 3094.69	  1789
 3094.79	  1791
 3094.89	  1793
 3094.99	  1798
  3095.1	  1802
  3095.2	  1803
  3095.3	  1805
  3095.4	  1811
  3095.5	  1814
  3095.6	  1819
  3095.7	  1827
  3095.8	  1828
  3095.9	  1831
  3096.0	  1834
  3096.1	  1835
  3096.2	  1836
  3096.3	  1838
  3096.4	  1841
  3096.5	  1845
  3096.6	  1850
  3096.7	  1854
  3096.8	  1858
  3096.9	  1862
  3097.0	  1866
  3097.1	  1870
  3097.2	  1873
  3097.3	  1877
  3097.4	  1879
  3097.5	  1882
  3097.6	  1886
  3097.7	  1891
  3097.8	  1896
  3097.9	  1900
  3098.0	  1905
  3098.1	  1909
  3098.2	  1911
  3098.3	  1916
  3098.4	  1921
  3098.5	  1924
  3098.6	  1927
  3098.7	  1934
  3098.8	  1942
  3098.9	  1943
  3099.0	  1942
  3099.1	  1951
  3099.2	  1961
  3099.3	  1960
  3099.4	  1963
  3099.5	  1967
  3099.6	  1969
  3099.7	  1972
  3099.8	  1975
  3099.9	  1978
  3100.0	  1981
  3100.1	  1984
  3100.2	  1988
  3100.3	  1993
  3100.4	  1998
  3100.5	  2003
  3100.6	  2007
  3100.7	  2011
  3100.8	  2016
  3100.9	  2017
  3101.0	  2021
  3101.1	  2025
  3101.2	  2031
  3101.3	  2036
  3101.4	  2040
  3101.5	  2045
  3101.6	  2048
  3101.7	  2050
  3101.8	  2056
  3101.9	  2060
  3102.0	  2063
  3102.1	  2065
  3102.2	  2072
  3102.3	  2079
  3102.4	  2083
  3102.5	  2087
  3102.6	  2092
  3102.7	  2097
  3102.8	  2102
  3102.9	  2108
 3103.01	  2113
 3103.11	  2116
 3103.21	  2125
 3103.31	  2134
 3103.41	  2137
 3103.51	  2142
 3103.61	  2146
 3103.71	  2149
 3103.81	  2153
 3103.91	  2158
 3104.01	  2162
 3104.11	  2165
 3104.21	  2170
 3104.31	  2173
 3104.41	  2178
 3104.51	  2182
 3104.61	  2184
 3104.71	  2187
 3104.81	  2191
 3104.91	  2196
 3105.01	  2200
 3105.11	  2206
 3105.21	  2211
 3105.31	  2216
 3105.41	  2221
 3105.51	  2227
 3105.61	  2234
 3105.71	  2239
 3105.81	  2244
 3105.91	  2251
 3106.01	  2257
 3106.11	  2261
 3106.21	  2265
 3106.31	  2274
 3106.41	  2283
 3106.51	  2288
 3106.61	  2289
 3106.71	  2298
 3106.81	  2307
 3106.91	  2308
 3107.01	  2313
 3107.11	  2316
 3107.21	  2320
 3107.31	  2327
 3107.41	  2332
 3107.51	  2338
 3107.61	  2344
 3107.71	  2347
 3107.81	  2352
 3107.91	  2357
 3108.01	  2361
 3108.11	  2366
 3108.21	  2370
 3108.31	  2377
 3108.41	  2381
 3108.51	  2386
 3108.61	  2391
 3108.71	  2396
 3108.81	  2401
 3108.91	  2406
 3109.01	  2411
 3109.11	  2416
 3109.21	  2420
 3109.31	  2425
 3109.41	  2430
 3109.51	  2435
 3109.61	  2441
 3109.71	  2446
 3109.81	  2451
 3109.91	  2457
 3110.01	  2462
 3110.11	  2468
 3110.21	  2474
 3110.31	  2478
 3110.41	  2488
 3110.51	  2498
 3110.61	  2499
 3110.71	  2500
 3110.81	  2509
 3110.91	  2513
 3111.02	  2515
 3111.12	  2517
 3111.22	  2520
 3111.32	  2526
 3111.42	  2533
 3111.52	  2540
 3111.62	  2548
 3111.72	  2554
 3111.82	  2560
 3111.92	  2564
 3112.02	  2568
 3112.12	  2575
 3112.22	  2580
 3112.32	  2587
 3112.42	  2592
 3112.52	  2596
 3112.62	  2602
 3112.72	  2607
 3112.82	  2612
 3112.92	  2617
 3113.02	  2622
 3113.12	  2626
 3113.22	  2631
 3113.32	  2634
 3113.42	  2638
 3113.52	  2646
 3113.62	  2653
 3113.72	  2656
 3113.82	  2658
 3113.92	  2665
 3114.02	  2670
 3114.12	  2673
 3114.22	  2674
 3114.32	  2680
 3114.42	  2686
 3114.52	  2692
 3114.62	  2700
 3114.72	  2704
 3114.82	  2708
 3114.92	  2716
 3115.02	  2723
 3115.12	  2728
 3115.22	  2735
 3115.32	  2741
 3115.42	  2747
 3115.52	  2754
 3115.62	  2759
 3115.72	  2764
 3115.82	  2769
 3115.92	  2775
 3116.02	  2780
 3116.12	  2785
 3116.22	  2790
 3116.32	  2795
 3116.42	  2799
 3116.52	  2802
 3116.62	  2808
 3116.72	  2814
 3116.82	  2820
 3116.92	  2826
 3117.02	  2832
 3117.12	  2837
 3117.22	  2842
 3117.32	  2849
 3117.42	  2853
 3117.52	  2856
 3117.62	  2861
 3117.72	  2867
 3117.82	  2870
 3117.92	  2872
 3118.02	  2882
 3118.12	  2896
 3118.22	  2896
 3118.32	  2899
 3118.42	  2905
 3118.52	  2908
 3118.62	  2912
 3118.72	  2915
 3118.82	  2919
 3118.92	  2922
 3119.03	  2925
 3119.13	  2929
 3119.23	  2934
 3119.33	  2939
 3119.43	  2945
 3119.53	  2952
 3119.63	  2958
 3119.73	  2965
 3119.83	  2970
 3119.93	  2973
 3120.03	  2977
 3120.13	  2980
 3120.23	  2984
 3120.33	  2989
 3120.43	  2994
 3120.53	  2996
 3120.63	  2998
 3120.73	  3002
 3120.83	  3006
 3120.93	  3008
 3121.03	  3010
 3121.13	  3015
 3121.23	  3020
 3121.33	  3022
 3121.43	  3024
 3121.53	  3029
 3121.63	  3031
 3121.73	  3035
 3121.83	  3041
 3121.93	  3044
 3122.03	  3045
 3122.13	  3050
 3122.23	  3057
 3122.33	  3059
 3122.43	  3064
 3122.53	  3069
 3122.63	  3075
 3122.73	  3079
 3122.83	  3084
 3122.93	  3088
 3123.03	  3091
 3123.13	  3093
 3123.23	  3095
 3123.33	  3095
 3123.43	  3097
 3123.53	  3100
 3123.63	  3102
 3123.73	  3105
 3123.83	  3106
 3123.93	  3109
 3124.03	  3112
 3124.13	  3115
 3124.23	  3116
 3124.33	  3119
 3124.43	  3122
 3124.53	  3126
 3124.63	  3127
 3124.73	  3127
 3124.83	  3130
 3124.93	  3135
 3125.03	  3137
 3125.13	  3138
 3125.23	  3143
 3125.33	  3147
 3125.43	  3149
 3125.53	  3148
 3125.63	  3155
 3125.73	  3162
 3125.83	  3164
 3125.93	  3170
 3126.03	  3175
 3126.13	  3176
 3126.23	  3180
 3126.33	  3182
 3126.43	  3182
 3126.53	  3184
 3126.63	  3187
 3126.73	  3190
 3126.83	  3192
 3126.93	  3193
 3127.04	  3194
 3127.14	  3196
 3127.24	  3197
 3127.34	  3197
 3127.44	  3199
 3127.54	  3199
 3127.64	  3199
 3127.74	  3199
 3127.84	  3200
 3127.94	  3201
 3128.04	  3203
 3128.14	  3203
 3128.24	  3203
 3128.34	  3203
 3128.44	  3203
 3128.54	  3204
 3128.64	  3207
 3128.74	  3208
 3128.84	  3208
 3128.94	  3210
 3129.04	  3211
 3129.14	  3210
 3129.24	  3208
 3129.34	  3210
 3129.44	  3213
 3129.54	  3209
 3129.64	  3206
 3129.74	  3210
 3129.84	  3213
 3129.94	  3214
 3130.04	  3214
 3130.14	  3214
 3130.24	  3214
 3130.34	  3214
 3130.44	  3212
 3130.54	  3213
 3130.64	  3215
 3130.74	  3214
 3130.84	  3214
 3130.94	  3215
 3131.04	  3215
 3131.14	  3214
 3131.24	  3212
 3131.34	  3212
 3131.44	  3213
 3131.54	  3212
 3131.64	  3212
 3131.74	  3213
 3131.84	  3214
 3131.94	  3213
 3132.04	  3216
 3132.14	  3217
 3132.24	  3217
 3132.34	  3216
 3132.44	  3218
 3132.54	  3220
 3132.64	  3219
 3132.74	  3215
 3132.84	  3216
 3132.94	  3216
 3133.04	  3213
 3133.14	  3208
 3133.24	  3206
 3133.34	  3202
 3133.44	  3199
 3133.54	  3199
 3133.64	  3195
 3133.74	  3192
 3133.84	  3191
 3133.94	  3188
 3134.04	  3188
 3134.14	  3187
 3134.24	  3188
 3134.34	  3187
 3134.44	  3185
 3134.54	  3182
 3134.64	  3180
 3134.74	  3177
 3134.84	  3173
 3134.94	  3169
 3135.05	  3166
 3135.15	  3162
 3135.25	  3159
 3135.35	  3156
 3135.45	  3152
 3135.55	  3149
 3135.65	  3146
 3135.75	  3145
 3135.85	  3142
 3135.95	  3139
 3136.05	  3135
 3136.15	  3132
 3136.25	  3130
 3136.35	  3127
 3136.45	  3123
 3136.55	  3120
 3136.65	  3116
 3136.75	  3109
 3136.85	  3103
 3136.95	  3106
 3137.05	  3110
 3137.15	  3102
 3137.25	  3099
 3137.35	  3098
 3137.45	  3095
 3137.55	  3091
 3137.65	  3087
 3137.75	  3084
 3137.85	  3080
 3137.95	  3076
 3138.05	  3072
 3138.15	  3068
 3138.25	  3064
 3138.35	  3061
 3138.45	  3058
 3138.55	  3056
 3138.65	  3052
 3138.75	  3049
 3138.85	  3046
 3138.95	  3041
 3139.05	  3036
 3139.15	  3030
 3139.25	  3023
 3139.35	  3018
 3139.45	  3014
 3139.55	  3007
 3139.65	  3004
 3139.75	  3001
 3139.85	  2995
 3139.95	  2990
 3140.05	  2987
 3140.15	  2984
 3140.25	  2977
 3140.35	  2970
 3140.45	  2966
 3140.55	  2960
 3140.65	  2954
 3140.75	  2950
 3140.85	  2943
 3140.95	  2934
 3141.05	  2933
 3141.15	  2932
 3141.25	  2924
 3141.35	  2918
 3141.45	  2914
 3141.55	  2909
 3141.65	  2904
 3141.75	  2898
 3141.85	  2891
 3141.95	  2886
 3142.05	  2881
 3142.15	  2875
 3142.25	  2870
 3142.35	  2865
 3142.45	  2860
 3142.55	  2855
 3142.65	  2850
 3142.75	  2845
 3142.85	  2840
 3142.95	  2834
 3143.06	  2830
 3143.16	  2824
 3143.26	  2818
 3143.36	  2812
 3143.46	  2807
 3143.56	  2800
 3143.66	  2792
 3143.76	  2787
 3143.86	  2783
 3143.96	  2775
 3144.06	  2765
 3144.16	  2760
 3144.26	  2753
 3144.36	  2744
 3144.46	  2733
 3144.56	  2732
 3144.66	  2730
 3144.76	  2721
 3144.86	  2716
 3144.96	  2708
 3145.06	  2702
 3145.16	  2700
 3145.26	  2695
 3145.36	  2689
 3145.46	  2683
 3145.56	  2678
 3145.66	  2672
 3145.76	  2664
 3145.86	  2658
 3145.96	  2651
 3146.06	  2644
 3146.16	  2637
 3146.26	  2631
 3146.36	  2622
 3146.46	  2616
 3146.56	  2610
 3146.66	  2603
 3146.76	  2596
 3146.86	  2590
 3146.96	  2584
 3147.06	  2576
 3147.16	  2568
 3147.26	  2561
 3147.36	  2556
 3147.46	  2551
 3147.56	  2544
 3147.66	  2538
 3147.76	  2533
 3147.86	  2527
 3147.96	  2520
 3148.06	  2510
 3148.16	  2499
 3148.26	  2495
 3148.36	  2491
 3148.46	  2479
 3148.56	  2467
 3148.66	  2465
 3148.76	  2460
 3148.86	  2455
 3148.96	  2450
 3149.06	  2443
 3149.16	  2436
 3149.26	  2428
 3149.36	  2422
 3149.46	  2415
 3149.56	  2407
 3149.66	  2401
 3149.76	  2392
 3149.86	  2385
 3149.96	  2379
 3150.06	  2371
 3150.16	  2363
 3150.26	  2356
 3150.36	  2350
 3150.46	  2343
 3150.56	  2338
 3150.66	  2332
 3150.76	  2325
 3150.86	  2319
 3150.96	  2314
 3151.07	  2311
 3151.17	  2303
 3151.27	  2296
 3151.37	  2292
 3151.47	  2287
 3151.57	  2279
 3151.67	  2269
 3151.77	  2263
 3151.87	  2257
 3151.97	  2248
 3152.07	  2238
 3152.17	  2233
 3152.27	  2227
 3152.37	  2220
 3152.47	  2215
 3152.57	  2205
 3152.67	  2197
 3152.77	  2191
 3152.87	  2184
 3152.97	  2177
 3153.07	  2170
 3153.17	  2163
 3153.27	  2158
 3153.37	  2156
 3153.47	  2151
 3153.57	  2145
 3153.67	  2140
 3153.77	  2133
 3153.87	  2125
 3153.97	  2117
 3154.07	  2109
 3154.17	  2102
 3154.27	  2094
 3154.37	  2086
 3154.47	  2079
 3154.57	  2073
 3154.67	  2066
 3154.77	  2059
 3154.87	  2053
 3154.97	  2046
 3155.07	  2042
 3155.17	  2036
 3155.27	  2030
 3155.37	  2023
 3155.47	  2017
 3155.57	  2012
 3155.67	  2005
 3155.77	  1996
 3155.87	  1993
 3155.97	  1991
 3156.07	  1980
 3156.17	  1972
 3156.27	  1969
 3156.37	  1964
 3156.47	  1960
 3156.57	  1955
 3156.67	  1948
 3156.77	  1943
 3156.87	  1938
 3156.97	  1933
 3157.07	  1928
 3157.17	  1922
 3157.27	  1916
 3157.37	  1910
 3157.47	  1903
 3157.57	  1896
 3157.67	  1889
 3157.77	  1885
 3157.87	  1879
 3157.97	  1874
 3158.07	  1869
 3158.17	  1863
 3158.27	  1856
 3158.37	  1849
 3158.47	  1843
 3158.57	  1837
 3158.67	  1830
 3158.77	  1822
 3158.87	  1815
 3158.97	  1811
 3159.08	  1808
 3159.18	  1802
 3159.28	  1795
 3159.38	  1790
 3159.48	  1783
 3159.58	  1778
 3159.68	  1774
 3159.78	  1768
 3159.88	  1761
 3159.98	  1758
 3160.08	  1756
 3160.18	  1749
 3160.28	  1745
 3160.38	  1742
 3160.48	  1738
 3160.58	  1734
 3160.68	  1729
 3160.78	  1723
 3160.88	  1717
 3160.98	  1711
 3161.08	  1706
 3161.18	  1702
 3161.28	  1699
 3161.38	  1697
 3161.48	  1694
 3161.58	  1690
 3161.68	  1685
 3161.78	  1679
 3161.88	  1674
 3161.98	  1668
 3162.08	  1662
 3162.18	  1657
 3162.28	  1652
 3162.38	  1650
 3162.48	  1647
 3162.58	  1642
 3162.68	  1639
 3162.78	  1635
 3162.88	  1627
 3162.98	  1620
 3163.08	  1617
 3163.18	  1615
 3163.28	  1609
 3163.38	  1600
 3163.48	  1601
 3163.58	  1603
 3163.68	  1596
 3163.78	  1593
 3163.88	  1591
 3163.98	  1585
 3164.08	  1583
 3164.18	  1579
 3164.28	  1574
 3164.38	  1570
 3164.48	  1565
 3164.58	  1560
 3164.68	  1555
 3164.78	  1550
 3164.88	  1545
 3164.98	  1540
 3165.08	  1536
 3165.18	  1533
 3165.28	  1528
 3165.38	  1524
 3165.48	  1519
 3165.58	  1516
 3165.68	  1512
 3165.78	  1508
 3165.88	  1505
 3165.98	  1501
 3166.08	  1498
 3166.18	  1495
 3166.28	  1490
 3166.38	  1485
 3166.48	  1481
 3166.58	  1478
 3166.68	  1476
 3166.78	  1473
 3166.88	  1471
 3166.98	  1469
 3167.09	  1466
 3167.19	  1467
 3167.29	  1469
 3167.39	  1463
 3167.49	  1456
 3167.59	  1457
 3167.69	  1454
 3167.79	  1451
 3167.89	  1451
 3167.99	  1448
 3168.09	  1447
 3168.19	  1444
 3168.29	  1442
 3168.39	  1439
 3168.49	  1436
 3168.59	  1433
 3168.69	  1429
 3168.79	  1425
 3168.89	  1423
 3168.99	  1421
 3169.09	  1418
 3169.19	  1415
 3169.29	  1413
 3169.39	  1411
 3169.49	  1410
 3169.59	  1407
 3169.69	  1403
 3169.79	  1399
 3169.89	  1396
 3169.99	  1392
 3170.09	  1388
 3170.19	  1384
 3170.29	  1385
 3170.39	  1386
 3170.49	  1383
 3170.59	  1379
 3170.69	  1380
 3170.79	  1381
 3170.89	  1378
 3170.99	  1375
 3171.09	  1375
 3171.19	  1374
 3171.29	  1371
 3171.39	  1370
 3171.49	  1366
 3171.59	  1362
 3171.69	  1362
 3171.79	  1360
 3171.89	  1358
 3171.99	  1356
 3172.09	  1354
 3172.19	  1351
 3172.29	  1349
 3172.39	  1348
 3172.49	  1346
 3172.59	  1345
 3172.69	  1345
 3172.79	  1343
 3172.89	  1341
 3172.99	  1340
 3173.09	  1339
 3173.19	  1336
 3173.29	  1332
 3173.39	  1329
 3173.49	  1329
 3173.59	  1329
 3173.69	  1328
 3173.79	  1329
 3173.89	  1328
 3173.99	  1327
 3174.09	  1327
 3174.19	  1327
 3174.29	  1326
 3174.39	  1325
 3174.49	  1324
 3174.59	  1322
 3174.69	  1318
 3174.79	  1320
 3174.89	  1324
 3174.99	  1319
  3175.1	  1316
  3175.2	  1318
  3175.3	  1318
  3175.4	  1317
  3175.5	  1316
  3175.6	  1316
  3175.7	  1318
  3175.8	  1319
  3175.9	  1321
  3176.0	  1322
  3176.1	  1322
  3176.2	  1321
  3176.3	  1320
  3176.4	  1320
  3176.5	  1319
  3176.6	  1318
  3176.7	  1319
  3176.8	  1317
  3176.9	  1316
  3177.0	  1314
  3177.1	  1313
  3177.2	  1313
  3177.3	  1310
  3177.4	  1307
  3177.5	  1308
  3177.6	  1308
  3177.7	  1307
  3177.8	  1307
  3177.9	  1310
  3178.0	  1314
  3178.1	  1314
  3178.2	  1313
  3178.3	  1312
  3178.4	  1312
  3178.5	  1311
  3178.6	  1311
  3178.7	  1310
  3178.8	  1307
  3178.9	  1308
  3179.0	  1312
  3179.1	  1312
  3179.2	  1314
  3179.3	  1318
  3179.4	  1321
  3179.5	  1324
  3179.6	  1325
  3179.7	  1326
  3179.8	  1326
  3179.9	  1325
  3180.0	  1324
  3180.1	  1325
  3180.2	  1326
  3180.3	  1326
  3180.4	  1324
  3180.5	  1322
  3180.6	  1322
  3180.7	  1320
  3180.8	  1320
  3180.9	  1320
  3181.0	  1321
  3181.1	  1324
  3181.2	  1326
  3181.3	  1329
  3181.4	  1330
  3181.5	  1330
  3181.6	  1332
  3181.7	  1334
  3181.8	  1335
  3181.9	  1334
  3182.0	  1337
  3182.1	  1341
  3182.2	  1341
  3182.3	  1338
  3182.4	  1345
  3182.5	  1353
  3182.6	  1351
  3182.7	  1352
  3182.8	  1351
  3182.9	  1349
 3183.01	  1350
 3183.11	  1348
 3183.21	  1348
 3183.31	  1348
 3183.41	  1349
 3183.51	  1352
 3183.61	  1354
 3183.71	  1356
 3183.81	  1359
 3183.91	  1361
 3184.01	  1363
 3184.11	  1365
 3184.21	  1366
 3184.31	  1370
 3184.41	  1372
 3184.51	  1375
 3184.61	  1376
 3184.71	  1377
 3184.81	  1379
 3184.91	  1381
 3185.01	  1382
 3185.11	  1385
 3185.21	  1388
 3185.31	  1389
 3185.41	  1390
 3185.51	  1393
 3185.61	  1397
 3185.71	  1399
 3185.81	  1400
 3185.91	  1402
 3186.01	  1401
 3186.11	  1404
 3186.21	  1410
 3186.31	  1412
 3186.41	  1412
 3186.51	  1417
 3186.61	  1421
 3186.71	  1420
 3186.81	  1423
 3186.91	  1422
 3187.01	  1423
 3187.11	  1425
 3187.21	  1428
 3187.31	  1432
 3187.41	  1435
 3187.51	  1438
 3187.61	  1441
 3187.71	  1442
 3187.81	  1444
 3187.91	  1447
 3188.01	  1449
 3188.11	  1453
 3188.21	  1456
 3188.31	  1459
 3188.41	  1462
 3188.51	  1465
 3188.61	  1468
 3188.71	  1470
 3188.81	  1473
 3188.91	  1476
 3189.01	  1478
 3189.11	  1481
 3189.21	  1486
 3189.31	  1492
 3189.41	  1493
 3189.51	  1495
 3189.61	  1500
 3189.71	  1506
 3189.81	  1507
 3189.91	  1506
 3190.01	  1511
 3190.11	  1515
 3190.21	  1516
 3190.31	  1521
 3190.41	  1520
 3190.51	  1520
 3190.61	  1526
 3190.71	  1528
 3190.81	  1531
 3190.91	  1534
 3191.02	  1536
 3191.12	  1539
 3191.22	  1543
 3191.32	  1546
 3191.42	  1549
 3191.52	  1553
 3191.62	  1558
 3191.72	  1565
 3191.82	  1569
 3191.92	  1573
 3192.02	  1577
 3192.12	  1579
 3192.22	  1582
 3192.32	  1586
 3192.42	  1590
 3192.52	  1592
 3192.62	  1593
 3192.72	  1596
 3192.82	  1598
 3192.92	  1600
 3193.02	  1605
 3193.12	  1608
 3193.22	  1612
 3193.32	  1617
 3193.42	  1622
 3193.52	  1624
 3193.62	  1624
 3193.72	  1631
 3193.82	  1639
 3193.92	  1639
 3194.02	  1640
 3194.12	  1646
 3194.22	  1649
 3194.32	  1654
 3194.42	  1659
 3194.52	  1664
 3194.62	  1669
 3194.72	  1673
 3194.82	  1676
 3194.92	  1679
 3195.02	  1682
 3195.12	  1685
 3195.22	  1688
 3195.32	  1691
 3195.42	  1695
 3195.52	  1699
 3195.62	  1707
 3195.72	  1713
 3195.82	  1718
 3195.92	  1723
 3196.02	  1727
 3196.12	  1732
 3196.22	  1735
 3196.32	  1736
 3196.42	  1739
 3196.52	  1743
 3196.62	  1747
 3196.72	  1752
 3196.82	  1759
 3196.92	  1767
 3197.02	  1770
 3197.12	  1774
 3197.22	  1779
 3197.32	  1783
 3197.42	  1787
 3197.52	  1791
 3197.62	  1794
 3197.72	  1795
 3197.82	  1800
 3197.92	  1807
 3198.02	  1808
 3198.12	  1811
 3198.22	  1814
 3198.32	  1817
 3198.42	  1821
 3198.52	  1825
 3198.62	  1830
 3198.72	  1836
 3198.82	  1842
 3198.92	  1848
 3199.03	  1853
 3199.13	  1860
 3199.23	  1866
 3199.33	  1872
 3199.43	  1880
 3199.53	  1886
 3199.63	  1893
 3199.73	  1899
 3199.83	  1905
 3199.93	  1910
 3200.03	  1914
 3200.13	  1919
 3200.23	  1923
 3200.33	  1927
 3200.43	  1929
 3200.53	  1932
 3200.63	  1937
 3200.73	  1940
 3200.83	  1944
 3200.93	  1951
 3201.03	  1960
 3201.13	  1964
 3201.23	  1965
 3201.33	  1976
 3201.43	  1985
 3201.53	  1986
 3201.63	  1990
 3201.73	  1996
 3201.83	  2000
 3201.93	  2006
 3202.03	  2010
 3202.13	  2014
 3202.23	  2020
 3202.33	  2024
 3202.43	  2028
 3202.53	  2033
 3202.63	  2037
 3202.73	  2041
 3202.83	  2044
 3202.93	  2049
 3203.03	  2052
 3203.13	  2056
 3203.23	  2061
 3203.33	  2065
 3203.43	  2070
 3203.53	  2074
 3203.63	  2079
 3203.73	  2085
 3203.83	  2091
 3203.93	  2096
 3204.03	  2104
 3204.13	  2111
 3204.23	  2116
 3204.33	  2119
 3204.43	  2126
 3204.53	  2133
 3204.63	  2137
 3204.73	  2144
 3204.83	  2149
 3204.93	  2153
 3205.03	  2161
 3205.13	  2170
 3205.23	  2173
 3205.33	  2174
 3205.43	  2183
 3205.53	  2190
 3205.63	  2195
 3205.73	  2202
 3205.83	  2207
 3205.93	  2213
 3206.03	  2218
 3206.13	  2225
 3206.23	  2231
 3206.33	  2237
 3206.43	  2240
 3206.53	  2244
 3206.63	  2248
 3206.73	  2253
 3206.83	  2258
 3206.93	  2263
 3207.04	  2267
 3207.14	  2273
 3207.24	  2280
 3207.34	  2286
 3207.44	  2291
 3207.54	  2297
 3207.64	  2301
 3207.74	  2307
 3207.84	  2314
 3207.94	  2320
 3208.04	  2323
 3208.14	  2330
 3208.24	  2339
 3208.34	  2343
 3208.44	  2348
 3208.54	  2357
 3208.64	  2367
 3208.74	  2373
 3208.84	  2378
 3208.94	  2388
 3209.04	  2394
 3209.14	  2397
 3209.24	  2405
 3209.34	  2410
 3209.44	  2415
 3209.54	  2424
 3209.64	  2433
 3209.74	  2438
 3209.84	  2442
 3209.94	  2448
 3210.04	  2455
 3210.14	  2461
 3210.24	  2467
 3210.34	  2471
 3210.44	  2476
 3210.54	  2481
 3210.64	  2486
 3210.74	  2490
 3210.84	  2496
 3210.94	  2502
 3211.04	  2506
 3211.14	  2511
 3211.24	  2518
 3211.34	  2527
 3211.44	  2531
 3211.54	  2537
 3211.64	  2543
 3211.74	  2550
 3211.84	  2556
 3211.94	  2562
 3212.04	  2565
 3212.14	  2569
 3212.24	  2574
 3212.34	  2581
 3212.44	  2584
 3212.54	  2586
 3212.64	  2594
 3212.74	  2603
 3212.84	  2602
 3212.94	  2604
 3213.04	  2611
 3213.14	  2615
 3213.24	  2621
 3213.34	  2628
 3213.44	  2632
 3213.54	  2639
 3213.64	  2645
 3213.74	  2650
 3213.84	  2656
 3213.94	  2663
 3214.04	  2669
 3214.14	  2676
 3214.24	  2684
 3214.34	  2690
 3214.44	  2695
 3214.54	  2700
 3214.64	  2705
 3214.74	  2711
 3214.84	  2716
 3214.94	  2722
 3215.05	  2727
 3215.15	  2730
 3215.25	  2733
 3215.35	  2740
 3215.45	  2745
 3215.55	  2748
 3215.65	  2752
 3215.75	  2757
 3215.85	  2761
 3215.95	  2763
 3216.05	  2767
 3216.15	  2772
 3216.25	  2779
 3216.35	  2784
 3216.45	  2791
 3216.55	  2796
 3216.65	  2799
 3216.75	  2807
 3216.85	  2814
 3216.95	  2818
 3217.05	  2825
 3217.15	  2831
 3217.25	  2837
 3217.35	  2843
 3217.45	  2849
 3217.55	  2852
 3217.65	  2856
 3217.75	  2860
 3217.85	  2863
 3217.95	  2867
 3218.05	  2873
 3218.15	  2877
 3218.25	  2881
 3218.35	  2885
 3218.45	  2889
 3218.55	  2893
 3218.65	  2898
 3218.75	  2903
 3218.85	  2905
 3218.95	  2908
 3219.05	  2913
 3219.15	  2918
 3219.25	  2920
 3219.35	  2922
 3219.45	  2927
 3219.55	  2932
 3219.65	  2933
 3219.75	  2934
 3219.85	  2940
 3219.95	  2946
 3220.05	  2948
 3220.15	  2950
 3220.25	  2956
 3220.35	  2962
 3220.45	  2962
 3220.55	  2966
 3220.65	  2968
 3220.75	  2970
 3220.85	  2976
 3220.95	  2980
 3221.05	  2982
 3221.15	  2986
 3221.25	  2990
 3221.35	  2995
 3221.45	  2999
 3221.55	  3003
 3221.65	  3006
 3221.75	  3009
 3221.85	  3014
 3221.95	  3017
 3222.05	  3020
 3222.15	  3026
 3222.25	  3027
 3222.35	  3029
 3222.45	  3034
 3222.55	  3037
 3222.65	  3042
 3222.75	  3043
 3222.85	  3043
 3222.95	  3044
 3223.06	  3046
 3223.16	  3049
 3223.26	  3052
 3223.36	  3056
 3223.46	  3058
 3223.56	  3061
 3223.66	  3063
 3223.76	  3066
 3223.86	  3066
 3223.96	  3069
 3224.06	  3076
 3224.16	  3074
 3224.26	  3073
 3224.36	  3080
 3224.46	  3083
 3224.56	  3083
 3224.66	  3087
 3224.76	  3088
 3224.86	  3090
 3224.96	  3091
 3225.06	  3092
 3225.16	  3094
 3225.26	  3097
 3225.36	  3100
 3225.46	  3102
 3225.56	  3103
 3225.66	  3103
 3225.76	  3104
 3225.86	  3106
 3225.96	  3107
 3226.06	  3109
 3226.16	  3112
 3226.26	  3114
 3226.36	  3116
 3226.46	  3117
 3226.56	  3116
 3226.66	  3117
 3226.76	  3118
 3226.86	  3117
 3226.96	  3117
 3227.06	  3120
 3227.16	  3124
 3227.26	  3127
 3227.36	  3125
 3227.46	  3128
 3227.56	  3132
 3227.66	  3131
 3227.76	  3130
 3227.86	  3133
 3227.96	  3132
 3228.06	  3133
 3228.16	  3135
 3228.26	  3130
 3228.36	  3126
 3228.46	  3126
 3228.56	  3123
 3228.66	  3123
 3228.76	  3123
 3228.86	  3124
 3228.96	  3127
 3229.06	  3126
 3229.16	  3126
 3229.26	  3126
 3229.36	  3128
 3229.46	  3128
 3229.56	  3127
 3229.66	  3125
 3229.76	  3124
 3229.86	  3124
 3229.96	  3124
 3230.06	  3124
 3230.16	  3123
 3230.26	  3123
 3230.36	  3118
 3230.46	  3115
 3230.56	  3113
 3230.66	  3113
 3230.76	  3111
 3230.86	  3113
 3230.96	  3112
 3231.07	  3109
 3231.17	  3110
 3231.27	  3111
 3231.37	  3107
 3231.47	  3099
 3231.57	  3100
 3231.67	  3100
 3231.77	  3093
 3231.87	  3089
 3231.97	  3089
 3232.07	  3084
 3232.17	  3083
 3232.27	  3081
 3232.37	  3080
 3232.47	  3077
 3232.57	  3076
 3232.67	  3075
 3232.77	  3073
 3232.87	  3070
 3232.97	  3069
 3233.07	  3064
 3233.17	  3060
 3233.27	  3059
 3233.37	  3056
 3233.47	  3055
 3233.57	  3054
 3233.67	  3054
 3233.77	  3053
 3233.87	  3051
 3233.97	  3049
 3234.07	  3046
 3234.17	  3041
 3234.27	  3040
 3234.37	  3039
 3234.47	  3032
 3234.57	  3027
 3234.67	  3022
 3234.77	  3019
 3234.87	  3014
 3234.97	  3012
 3235.07	  3010
 3235.17	  3006
 3235.27	  3004
 3235.37	  3003
 3235.47	  2997
 3235.57	  2990
 3235.67	  2989
 3235.77	  2988
 3235.87	  2983
 3235.97	  2981
 3236.07	  2979
 3236.17	  2974
 3236.27	  2969
 3236.37	  2963
 3236.47	  2957
 3236.57	  2949
 3236.67	  2945
 3236.77	  2940
 3236.87	  2935
 3236.97	  2930
 3237.07	  2925
 3237.17	  2920
 3237.27	  2915
 3237.37	  2910
 3237.47	  2905
 3237.57	  2901
 3237.67	  2898
 3237.77	  2894
 3237.87	  2888
 3237.97	  2885
 3238.07	  2881
 3238.17	  2875
 3238.27	  2868
 3238.37	  2865
 3238.47	  2862
 3238.57	  2857
 3238.67	  2852
 3238.77	  2849
 3238.87	  2846
 3238.97	  2839
 3239.08	  2831
 3239.18	  2830
 3239.28	  2828
 3239.38	  2820
 3239.48	  2816
 3239.58	  2807
 3239.68	  2799
 3239.78	  2796
 3239.88	  2791
 3239.98	  2785
 3240.08	  2779
 3240.18	  2774
 3240.28	  2769
 3240.38	  2764
 3240.48	  2760
 3240.58	  2756
 3240.68	  2750
 3240.78	  2745
 3240.88	  2738
 3240.98	  2731
 3241.08	  2725
 3241.18	  2719
 3241.28	  2712
 3241.38	  2706
 3241.48	  2700
 3241.58	  2693
 3241.68	  2687
 3241.78	  2682
 3241.88	  2677
 3241.98	  2671
 3242.08	  2663
 3242.18	  2655
 3242.28	  2647
 3242.38	  2640
 3242.48	  2633
 3242.58	  2627
 3242.68	  2619
 3242.78	  2609
 3242.88	  2606
 3242.98	  2605
 3243.08	  2595
 3243.18	  2585
 3243.28	  2581
 3243.38	  2576
 3243.48	  2570
 3243.58	  2564
 3243.68	  2557
 3243.78	  2551
 3243.88	  2544
 3243.98	  2536
 3244.08	  2527
 3244.18	  2520
 3244.28	  2514
 3244.38	  2506
 3244.48	  2500
 3244.58	  2496
 3244.68	  2490
 3244.78	  2484
 3244.88	  2480
 3244.98	  2472
 3245.08	  2465
 3245.18	  2459
 3245.28	  2453
 3245.38	  2446
 3245.48	  2437
 3245.58	  2430
 3245.68	  2423
 3245.78	  2416
 3245.88	  2410
 3245.98	  2406
 3246.08	  2402
 3246.18	  2395
 3246.28	  2388
 3246.38	  2382
 3246.48	  2374
 3246.58	  2366
 3246.68	  2357
 3246.78	  2351
 3246.88	  2342
 3246.98	  2336
 3247.09	  2332
 3247.19	  2322
 3247.29	  2314
 3247.39	  2309
 3247.49	  2301
 3247.59	  2295
 3247.69	  2288
 3247.79	  2281
 3247.89	  2275
 3247.99	  2268
 3248.09	  2263
 3248.19	  2257
 3248.29	  2251
 3248.39	  2242
 3248.49	  2234
 3248.59	  2226
 3248.69	  2219
 3248.79	  2214
 3248.89	  2208
 3248.99	  2201
 3249.09	  2195
 3249.19	  2186
 3249.29	  2179
 3249.39	  2171
 3249.49	  2163
 3249.59	  2155
 3249.69	  2148
 3249.79	  2142
 3249.89	  2133
 3249.99	  2125
 3250.09	  2120
 3250.19	  2115
 3250.29	  2106
 3250.39	  2094
 3250.49	  2091
 3250.59	  2089
 3250.69	  2078
 3250.79	  2071
 3250.89	  2065
 3250.99	  2057
 3251.09	  2052
 3251.19	  2045
 3251.29	  2039
 3251.39	  2033
 3251.49	  2026
 3251.59	  2020
 3251.69	  2014
 3251.79	  2007
 3251.89	  2001
 3251.99	  1996
 3252.09	  1989
 3252.19	  1982
 3252.29	  1976
 3252.39	  1970
 3252.49	  1963
 3252.59	  1956
 3252.69	  1948
 3252.79	  1940
 3252.89	  1935
 3252.99	  1928
 3253.09	  1921
 3253.19	  1916
 3253.29	  1911
 3253.39	  1903
 3253.49	  1894
 3253.59	  1886
 3253.69	  1880
 3253.79	  1871
 3253.89	  1863
 3253.99	  1856
 3254.09	  1847
 3254.19	  1842
 3254.29	  1839
 3254.39	  1830
 3254.49	  1822
 3254.59	  1823
 3254.69	  1822
 3254.79	  1816
 3254.89	  1812
 3254.99	  1807
  3255.1	  1802
  3255.2	  1797
  3255.3	  1791
  3255.4	  1786
  3255.5	  1780
  3255.6	  1775
  3255.7	  1768
  3255.8	  1760
  3255.9	  1754
  3256.0	  1747
  3256.1	  1738
  3256.2	  1732
  3256.3	  1726
  3256.4	  1718
  3256.5	  1711
  3256.6	  1704
  3256.7	  1698
  3256.8	  1693
  3256.9	  1690
  3257.0	  1687
  3257.1	  1682
  3257.2	  1675
  3257.3	  1672
  3257.4	  1669
  3257.5	  1661
  3257.6	  1653
  3257.7	  1649
  3257.8	  1645
  3257.9	  1638
  3258.0	  1630
  3258.1	  1627
  3258.2	  1623
  3258.3	  1617
  3258.4	  1614
  3258.5	  1607
  3258.6	  1600
  3258.7	  1596
  3258.8	  1592
  3258.9	  1587
  3259.0	  1581
  3259.1	  1576
  3259.2	  1570
  3259.3	  1565
  3259.4	  1562
  3259.5	  1557
  3259.6	  1554
  3259.7	  1549
  3259.8	  1544
  3259.9	  1541
  3260.0	  1537
  3260.1	  1532
  3260.2	  1528
  3260.3	  1523
  3260.4	  1518
  3260.5	  1516
  3260.6	  1511
  3260.7	  1506
  3260.8	  1500
  3260.9	  1492
  3261.0	  1486
  3261.1	  1482
  3261.2	  1477
  3261.3	  1472
  3261.4	  1469
  3261.5	  1466
  3261.6	  1462
  3261.7	  1455
  3261.8	  1456
  3261.9	  1458
  3262.0	  1450
  3262.1	  1443
  3262.2	  1441
  3262.3	  1436
  3262.4	  1432
  3262.5	  1428
  3262.6	  1422
  3262.7	  1417
  3262.8	  1413
  3262.9	  1409
 3263.01	  1405
 3263.11	  1403
 3263.21	  1401
 3263.31	  1398
 3263.41	  1396
 3263.51	  1393
 3263.61	  1390
 3263.71	  1387
 3263.81	  1383
 3263.91	  1378
 3264.01	  1374
 3264.11	  1370
 3264.21	  1368
 3264.31	  1364
 3264.41	  1359
 3264.51	  1355
 3264.61	  1352
 3264.71	  1348
 3264.81	  1344
 3264.91	  1344
 3265.01	  1344
 3265.11	  1340
 3265.21	  1337
 3265.31	  1336
 3265.41	  1334
 3265.51	  1332
 3265.61	  1331
 3265.71	  1328
 3265.81	  1322
 3265.91	  1322
 3266.01	  1320
 3266.11	  1313
 3266.21	  1309
 3266.31	  1306
 3266.41	  1302
 3266.51	  1298
 3266.61	  1295
 3266.71	  1292
 3266.81	  1290
 3266.91	  1288
 3267.01	  1286
 3267.11	  1285
 3267.21	  1283
 3267.31	  1280
 3267.41	  1277
 3267.51	  1275
 3267.61	  1274
 3267.71	  1272
 3267.81	  1270
 3267.91	  1268
 3268.01	  1265
 3268.11	  1262
 3268.21	  1260
 3268.31	  1258
 3268.41	  1256
 3268.51	  1254
 3268.61	  1254
 3268.71	  1255
 3268.81	  1251
 3268.91	  1247
 3269.01	  1246
 3269.11	  1247
 3269.21	  1242
 3269.31	  1235
 3269.41	  1236
 3269.51	  1237
 3269.61	  1232
 3269.71	  1230
 3269.81	  1229
 3269.91	  1227
 3270.01	  1229
 3270.11	  1228
 3270.21	  1226
 3270.31	  1224
 3270.41	  1222
 3270.51	  1218
 3270.61	  1215
 3270.71	  1212
 3270.81	  1209
 3270.91	  1208
 3271.02	  1207
 3271.12	  1204
 3271.22	  1201
 3271.32	  1200
 3271.42	  1198
 3271.52	  1197
 3271.62	  1194
 3271.72	  1192
 3271.82	  1192
 3271.92	  1191
 3272.02	  1190
 3272.12	  1191
 3272.22	  1191
 3272.32	  1190
 3272.42	  1189
 3272.52	  1189
 3272.62	  1189
 3272.72	  1188
 3272.82	  1187
 3272.92	  1185
 3273.02	  1183
 3273.12	  1185
 3273.22	  1189
 3273.32	  1183
 3273.42	  1178
 3273.52	  1181
 3273.62	  1182
 3273.72	  1179
 3273.82	  1177
 3273.92	  1175
 3274.02	  1177
 3274.12	  1178
 3274.22	  1180
 3274.32	  1181
 3274.42	  1182
 3274.52	  1181
 3274.62	  1180
 3274.72	  1180
 3274.82	  1181
 3274.92	  1181
 3275.02	  1182
 3275.12	  1181
 3275.22	  1181
 3275.32	  1180
 3275.42	  1181
 3275.52	  1181
 3275.62	  1182
 3275.72	  1182
 3275.82	  1183
 3275.92	  1185
 3276.02	  1184
 3276.12	  1182
 3276.22	  1183
 3276.32	  1185
 3276.42	  1184
 3276.52	  1180
 3276.62	  1181
 3276.72	  1181
 3276.82	  1178
 3276.92	  1175
 3277.02	  1175
 3277.12	  1174
 3277.22	  1174
 3277.32	  1177
 3277.42	  1176
 3277.52	  1174
 3277.62	  1176
 3277.72	  1178
 3277.82	  1179
 3277.92	  1181
 3278.02	  1182
 3278.12	  1184
 3278.22	  1184
 3278.32	  1185
 3278.42	  1186
 3278.52	  1188
 3278.62	  1191
 3278.72	  1191
 3278.82	  1189
 3278.92	  1190
 3279.03	  1191
 3279.13	  1192
 3279.23	  1196
 3279.33	  1198
 3279.43	  1200
 3279.53	  1201
 3279.63	  1201
 3279.73	  1203
 3279.83	  1204
 3279.93	  1207
 3280.03	  1208
 3280.13	  1209
 3280.23	  1209
 3280.33	  1211
 3280.43	  1213
 3280.53	  1211
 3280.63	  1205
 3280.73	  1208
 3280.83	  1214
 3280.93	  1211
 3281.03	  1211
 3281.13	  1215
 3281.23	  1216
 3281.33	  1221
 3281.43	  1224
 3281.53	  1226
 3281.63	  1229
 3281.73	  1229
 3281.83	  1227
 3281.93	  1226
 3282.03	  1225
 3282.13	  1225
 3282.23	  1224
 3282.33	  1227
 3282.43	  1229
 3282.53	  1231
 3282.63	  1234
 3282.73	  1238
 3282.83	  1240
 3282.93	  1242
 3283.03	  1244
 3283.13	  1247
 3283.23	  1247
 3283.33	  1247
 3283.43	  1250
 3283.53	  1254
 3283.63	  1254
 3283.73	  1256
 3283.83	  1260
 3283.93	  1265
 3284.03	  1267
 3284.13	  1268
 3284.23	  1272
 3284.33	  1273
 3284.43	  1277
 3284.53	  1280
 3284.63	  1281
 3284.73	  1278
 3284.83	  1281
 3284.93	  1285
 3285.03	  1284
 3285.13	  1285
 3285.23	  1288
 3285.33	  1291
 3285.43	  1292
 3285.53	  1294
 3285.63	  1296
 3285.73	  1298
 3285.83	  1300
 3285.93	  1301
 3286.03	  1302
 3286.13	  1305
 3286.23	  1307
 3286.33	  1310
 3286.43	  1312
 3286.53	  1315
 3286.63	  1318
 3286.73	  1322
 3286.83	  1325
 3286.93	  1330
 3287.04	  1334
 3287.14	  1337
 3287.24	  1342
 3287.34	  1343
 3287.44	  1344
 3287.54	  1348
 3287.64	  1352
 3287.74	  1352
 3287.84	  1352
 3287.94	  1355
 3288.04	  1360
 3288.14	  1360
 3288.24	  1360
 3288.34	  1366
 3288.44	  1372
 3288.54	  1373
 3288.64	  1378
 3288.74	  1379
 3288.84	  1379
 3288.94	  1385
 3289.04	  1387
 3289.14	  1393
 3289.24	  1396
 3289.34	  1400
 3289.44	  1402
 3289.54	  1404
 3289.64	  1406
 3289.74	  1410
 3289.84	  1413
 3289.94	  1417
 3290.04	  1422
 3290.14	  1425
 3290.24	  1431
 3290.34	  1436
 3290.44	  1439
 3290.54	  1441
 3290.64	  1445
 3290.74	  1448
 3290.84	  1449
 3290.94	  1451
 3291.04	  1455
 3291.14	  1459
 3291.24	  1462
 3291.34	  1466
 3291.44	  1470
 3291.54	  1473
 3291.64	  1475
 3291.74	  1477
 3291.84	  1479
 3291.94	  1480
 3292.04	  1486
 3292.14	  1494
 3292.24	  1493
 3292.34	  1494
 3292.44	  1499
 3292.54	  1503
 3292.64	  1507
 3292.74	  1511
 3292.84	  1515
 3292.94	  1519
 3293.04	  1523
 3293.14	  1526
 3293.24	  1529
 3293.34	  1532
 3293.44	  1536
 3293.54	  1540
 3293.64	  1542
 3293.74	  1546
 3293.84	  1550
 3293.94	  1554
 3294.04	  1559
 3294.14	  1565
 3294.24	  1570
 3294.34	  1575
 3294.44	  1579
 3294.54	  1582
 3294.64	  1586
 3294.74	  1592
 3294.84	  1596
 3294.94	  1599
 3295.05	  1601
 3295.15	  1606
 3295.25	  1612
 3295.35	  1613
 3295.45	  1615
 3295.55	  1619
 3295.65	  1623
 3295.75	  1626
 3295.85	  1629
 3295.95	  1632
 3296.05	  1636
 3296.15	  1641
 3296.25	  1649
 3296.35	  1651
 3296.45	  1655
 3296.55	  1660
 3296.65	  1664
 3296.75	  1669
 3296.85	  1674
 3296.95	  1680
 3297.05	  1686
 3297.15	  1692
 3297.25	  1698
 3297.35	  1704
 3297.45	  1708
 3297.55	  1711
 3297.65	  1714
 3297.75	  1719
 3297.85	  1723
 3297.95	  1729
 3298.05	  1734
 3298.15	  1738
 3298.25	  1743
 3298.35	  1747
 3298.45	  1751
 3298.55	  1756
 3298.65	  1761
 3298.75	  1767
 3298.85	  1773
 3298.95	  1779
 3299.05	  1783
 3299.15	  1785
 3299.25	  1791
 3299.35	  1796
 3299.45	  1798
 3299.55	  1798
 3299.65	  1808
 3299.75	  1819
 3299.85	  1820
 3299.95	  1824
 3300.05	  1829
 3300.15	  1830
 3300.25	  1835
 3300.35	  1838
 3300.45	  1842
 3300.55	  1847
 3300.65	  1854
 3300.75	  1861
 3300.85	  1867
 3300.95	  1872
 3301.05	  1878
 3301.15	  1884
 3301.25	  1890
 3301.35	  1895
 3301.45	  1899
 3301.55	  1905
 3301.65	  1910
 3301.75	  1916
 3301.85	  1920
 3301.95	  1924
 3302.05	  1931
 3302.15	  1935
 3302.25	  1939
 3302.35	  1947
 3302.45	  1953
 3302.55	  1959
 3302.65	  1966
 3302.75	  1973
 3302.85	  1982
 3302.95	  1987
 3303.06	  1993
 3303.16	  1998
 3303.26	  2000
 3303.36	  2007
 3303.46	  2015
 3303.56	  2016
 3303.66	  2018
 3303.76	  2027
 3303.86	  2034
 3303.96	  2038
 3304.06	  2045
 3304.16	  2049
 3304.26	  2055
 3304.36	  2062
 3304.46	  2067
 3304.56	  2072
 3304.66	  2076
 3304.76	  2082
 3304.86	  2088
 3304.96	  2092
 3305.06	  2097
 3305.16	  2102
 3305.26	  2109
 3305.36	  2115
 3305.46	  2123
 3305.56	  2128
 3305.66	  2132
 3305.76	  2137
 3305.86	  2142
 3305.96	  2145
 3306.06	  2150
 3306.16	  2158
 3306.26	  2163
 3306.36	  2167
 3306.46	  2174
 3306.56	  2182
 3306.66	  2184
 3306.76	  2187
 3306.86	  2194
 3306.96	  2200
 3307.06	  2203
 3307.16	  2207
 3307.26	  2214
 3307.36	  2220
 3307.46	  2225
 3307.56	  2233
 3307.66	  2238
 3307.76	  2242
 3307.86	  2250
 3307.96	  2257
 3308.06	  2265
 3308.16	  2272
 3308.26	  2280
 3308.36	  2286
 3308.46	  2293
 3308.56	  2298
 3308.66	  2303
 3308.76	  2309
 3308.86	  2316
 3308.96	  2322
 3309.06	  2327
 3309.16	  2332
 3309.26	  2337
 3309.36	  2342
 3309.46	  2346
 3309.56	  2352
 3309.66	  2359
 3309.76	  2363
 3309.86	  2368
 3309.96	  2373
 3310.06	  2377
 3310.16	  2384
 3310.26	  2392
 3310.36	  2397
 3310.46	  2403
 3310.56	  2410
 3310.66	  2418
 3310.76	  2423
 3310.86	  2426
 3310.96	  2436
 3311.07	  2447
 3311.17	  2447
 3311.27	  2449
 3311.37	  2455
 3311.47	  2458
 3311.57	  2465
 3311.67	  2472
 3311.77	  2477
 3311.87	  2483
 3311.97	  2489
 3312.07	  2495
 3312.17	  2500
 3312.27	  2506
 3312.37	  2512
 3312.47	  2519
 3312.57	  2526
 3312.67	  2533
 3312.77	  2538
 3312.87	  2545
 3312.97	  2551
 3313.07	  2557
 3313.17	  2562
 3313.27	  2568
 3313.37	  2575
 3313.47	  2579
 3313.57	  2584
 3313.67	  2591
 3313.77	  2597
 3313.87	  2603
 3313.97	  2608
 3314.07	  2614
 3314.17	  2620
 3314.27	  2624
 3314.37	  2628
 3314.47	  2633
 3314.57	  2637
 3314.67	  2642
 3314.77	  2647
 3314.87	  2651
 3314.97	  2653
 3315.07	  2660
 3315.17	  2666
 3315.27	  2670
 3315.37	  2676
 3315.47	  2680
 3315.57	  2685
 3315.67	  2691
 3315.77	  2698
 3315.87	  2706
 3315.97	  2713
 3316.07	  2718
 3316.17	  2724
 3316.27	  2728
 3316.37	  2732
 3316.47	  2736
 3316.57	  2741
 3316.67	  2747
 3316.77	  2753
 3316.87	  2756
 3316.97	  2759
 3317.07	  2765
 3317.17	  2769
 3317.27	  2773
 3317.37	  2778
 3317.47	  2782
 3317.57	  2787
 3317.67	  2792
 3317.77	  2800
 3317.87	  2808
 3317.97	  2810
 3318.07	  2812
 3318.17	  2818
 3318.27	  2825
 3318.37	  2827
 3318.47	  2828
 3318.57	  2834
 3318.67	  2841
 3318.77	  2842
 3318.87	  2844
 3318.97	  2846
 3319.08	  2848
 3319.18	  2854
 3319.28	  2859
 3319.38	  2862
 3319.48	  2865
 3319.58	  2869
 3319.68	  2872
 3319.78	  2877
 3319.88	  2881
 3319.98	  2884
 3320.08	  2887
 3320.18	  2892
 3320.28	  2896
 3320.38	  2901
 3320.48	  2907
 3320.58	  2911
 3320.68	  2916
 3320.78	  2920
 3320.88	  2924
 3320.98	  2929
 3321.08	  2934
 3321.18	  2935
 3321.28	  2939
 3321.38	  2944
 3321.48	  2948
 3321.58	  2953
 3321.68	  2957
 3321.78	  2961
 3321.88	  2965
 3321.98	  2970
 3322.08	  2973
 3322.18	  2974
 3322.28	  2979
 3322.38	  2988
 3322.48	  2988
 3322.58	  2986
 3322.68	  2992
 3322.78	  2995
 3322.88	  2998
 3322.98	  3002
 3323.08	  3005
 3323.18	  3008
 3323.28	  3010
 3323.38	  3012
 3323.48	  3016
 3323.58	  3019
 3323.68	  3022
 3323.78	  3026
 3323.88	  3031
 3323.98	  3035
 3324.08	  3039
 3324.18	  3041
 3324.28	  3042
 3324.38	  3043
 3324.48	  3047
 3324.58	  3048
 3324.68	  3051
 3324.78	  3052
 3324.88	  3053
 3324.98	  3055
 3325.08	  3058
 3325.18	  3059
 3325.28	  3060
 3325.38	  3063
 3325.48	  3067
 3325.58	  3067
 3325.68	  3068
 3325.78	  3070
 3325.88	  3074
 3325.98	  3070
 3326.08	  3069
 3326.18	  3072
 3326.28	  3069
 3326.38	  3073
 3326.48	  3077
 3326.58	  3075
 3326.68	  3074
 3326.78	  3077
 3326.88	  3079
 3326.98	  3082
 3327.09	  3084
 3327.19	  3087
 3327.29	  3089
 3327.39	  3091
 3327.49	  3092
 3327.59	  3095
 3327.69	  3096
 3327.79	  3098
 3327.89	  3100
 3327.99	  3102
 3328.09	  3104
 3328.19	  3107
 3328.29	  3109
 3328.39	  3109
 3328.49	  3111
 3328.59	  3111
 3328.69	  3108
 3328.79	  3106
 3328.89	  3105
 3328.99	  3103
 3329.09	  3102
 3329.19	  3103
 3329.29	  3101
 3329.39	  3097
 3329.49	  3098
 3329.59	  3100
 3329.69	  3097
 3329.79	  3093
 3329.89	  3097
 3329.99	  3100
 3330.09	  3096
 3330.19	  3096
 3330.29	  3096
 3330.39	  3092
 3330.49	  3093
 3330.59	  3091
 3330.69	  3089
 3330.79	  3087
 3330.89	  3086
 3330.99	  3085
 3331.09	  3083
 3331.19	  3085
 3331.29	  3086
 3331.39	  3085
 3331.49	  3085
 3331.59	  3084
 3331.69	  3081
 3331.79	  3080
 3331.89	  3077
 3331.99	  3073
 3332.09	  3070
 3332.19	  3068
 3332.29	  3067
 3332.39	  3063
 3332.49	  3059
 3332.59	  3057
 3332.69	  3056
 3332.79	  3051
 3332.89	  3048
 3332.99	  3046
 3333.09	  3044
 3333.19	  3041
 3333.29	  3037
 3333.39	  3033
 3333.49	  3027
 3333.59	  3028
 3333.69	  3030
 3333.79	  3024
 3333.89	  3019
 3333.99	  3020
 3334.09	  3018
 3334.19	  3015
 3334.29	  3014
 3334.39	  3012
 3334.49	  3008
 3334.59	  3005
 3334.69	  3002
 3334.79	  2998
 3334.89	  2994
 3334.99	  2991
  3335.1	  2986
  3335.2	  2983
  3335.3	  2979
  3335.4	  2975
  3335.5	  2973
  3335.6	  2969
  3335.7	  2965
  3335.8	  2962
  3335.9	  2959
  3336.0	  2957
  3336.1	  2952
  3336.2	  2946
  3336.3	  2942
  3336.4	  2939
  3336.5	  2932
  3336.6	  2926
  3336.7	  2924
  3336.8	  2920
  3336.9	  2913
  3337.0	  2906
  3337.1	  2903
  3337.2	  2901
  3337.3	  2894
  3337.4	  2887
  3337.5	  2884
  3337.6	  2880
  3337.7	  2875
  3337.8	  2872
  3337.9	  2864
  3338.0	  2857
  3338.1	  2855
  3338.2	  2848
  3338.3	  2841
  3338.4	  2837
  3338.5	  2832
  3338.6	  2829
  3338.7	  2825
  3338.8	  2820
  3338.9	  2814
  3339.0	  2809
  3339.1	  2804
  3339.2	  2799
  3339.3	  2794
  3339.4	  2790
  3339.5	  2785
  3339.6	  2781
  3339.7	  2777
  3339.8	  2772
  3339.9	  2766
  3340.0	  2761
  3340.1	  2755
  3340.2	  2750
  3340.3	  2743
  3340.4	  2737
  3340.5	  2731
  3340.6	  2722
  3340.7	  2714
  3340.8	  2711
  3340.9	  2707
  3341.0	  2699
  3341.1	  2690
  3341.2	  2688
  3341.3	  2688
  3341.4	  2678
  3341.5	  2670
  3341.6	  2665
  3341.7	  2658
  3341.8	  2653
  3341.9	  2644
  3342.0	  2637
  3342.1	  2631
  3342.2	  2624
  3342.3	  2616
  3342.4	  2610
  3342.5	  2603
  3342.6	  2598
  3342.7	  2592
  3342.8	  2587
  3342.9	  2580
 3343.01	  2575
 3343.11	  2569
 3343.21	  2564
 3343.31	  2559
 3343.41	  2554
 3343.51	  2549
 3343.61	  2544
 3343.71	  2538
 3343.81	  2531
 3343.91	  2526
 3344.01	  2519
 3344.11	  2510
 3344.21	  2501
 3344.31	  2493
 3344.41	  2485
 3344.51	  2476
 3344.61	  2467
 3344.71	  2460
 3344.81	  2451
 3344.91	  2445
 3345.01	  2439
 3345.11	  2431
 3345.21	  2420
 3345.31	  2414
 3345.41	  2409
 3345.51	  2399
 3345.61	  2392
 3345.71	  2385
 3345.81	  2379
 3345.91	  2373
 3346.01	  2366
 3346.11	  2360
 3346.21	  2353
 3346.31	  2347
 3346.41	  2338
 3346.51	  2331
 3346.61	  2325
 3346.71	  2320
 3346.81	  2314
 3346.91	  2309
 3347.01	  2301
 3347.11	  2294
 3347.21	  2288
 3347.31	  2280
 3347.41	  2273
 3347.51	  2267
 3347.61	  2260
 3347.71	  2255
 3347.81	  2248
 3347.91	  2238
 3348.01	  2232
 3348.11	  2226
 3348.21	  2215
 3348.31	  2204
 3348.41	  2199
 3348.51	  2195
 3348.61	  2186
 3348.71	  2174
 3348.81	  2171
 3348.91	  2167
 3349.01	  2159
 3349.11	  2155
 3349.21	  2147
 3349.31	  2138
 3349.41	  2131
 3349.51	  2122
 3349.61	  2114
 3349.71	  2105
 3349.81	  2098
 3349.91	  2092
 3350.01	  2086
 3350.11	  2077
 3350.21	  2066
 3350.31	  2058
 3350.41	  2050
 3350.51	  2042
 3350.61	  2035
 3350.71	  2029
 3350.81	  2022
 3350.91	  2017
 3351.02	  2012
 3351.12	  2005
 3351.22	  1998
 3351.32	  1990
 3351.42	  1984
 3351.52	  1979
 3351.62	  1974
 3351.72	  1968
 3351.82	  1962
 3351.92	  1955
 3352.02	  1949
 3352.12	  1942
 3352.22	  1936
 3352.32	  1927
 3352.42	  1916
 3352.52	  1911
 3352.62	  1908
 3352.72	  1896
 3352.82	  1886
 3352.92	  1882
 3353.02	  1876
 3353.12	  1871
 3353.22	  1865
 3353.32	  1858
 3353.42	  1851
 3353.52	  1844
 3353.62	  1837
 3353.72	  1831
 3353.82	  1825
 3353.92	  1818
 3354.02	  1812
 3354.12	  1804
 3354.22	  1797
 3354.32	  1790
 3354.42	  1784
 3354.52	  1779
 3354.62	  1773
 3354.72	  1767
 3354.82	  1761
 3354.92	  1756
 3355.02	  1748
 3355.12	  1740
 3355.22	  1734
 3355.32	  1729
 3355.42	  1720
 3355.52	  1713
 3355.62	  1707
 3355.72	  1703
 3355.82	  1696
 3355.92	  1689
 3356.02	  1686
 3356.12	  1682
 3356.22	  1680
 3356.32	  1678
 3356.42	  1672
 3356.52	  1665
 3356.62	  1661
 3356.72	  1656
 3356.82	  1648
 3356.92	  1641
 3357.02	  1634
 3357.12	  1628
 3357.22	  1622
 3357.32	  1617
 3357.42	  1611
 3357.52	  1604
 3357.62	  1599
 3357.72	  1592
 3357.82	  1585
 3357.92	  1578
 3358.02	  1573
 3358.12	  1566
 3358.22	  1560
 3358.32	  1554
 3358.42	  1548
 3358.52	  1543
 3358.62	  1539
 3358.72	  1533
 3358.82	  1528
 3358.92	  1525
 3359.03	  1521
 3359.13	  1516
 3359.23	  1507
 3359.33	  1505
 3359.43	  1503
 3359.53	  1496
 3359.63	  1489
 3359.73	  1486
 3359.83	  1483
 3359.93	  1475
 3360.03	  1466
 3360.13	  1465
 3360.23	  1465
 3360.33	  1458
 3360.43	  1456
 3360.53	  1452
 3360.63	  1444
 3360.73	  1442
 3360.83	  1435
 3360.93	  1430
 3361.03	  1424
 3361.13	  1419
 3361.23	  1413
 3361.33	  1410
 3361.43	  1407
 3361.53	  1403
 3361.63	  1400
 3361.73	  1398
 3361.83	  1393
 3361.93	  1390
 3362.03	  1387
 3362.13	  1383
 3362.23	  1380
 3362.33	  1375
 3362.43	  1371
 3362.53	  1367
 3362.63	  1361
 3362.73	  1355
 3362.83	  1350
 3362.93	  1346
 3363.03	  1343
 3363.13	  1339
 3363.23	  1333
 3363.33	  1328
 3363.43	  1324
 3363.53	  1320
 3363.63	  1316
 3363.73	  1310
 3363.83	  1310
 3363.93	  1313
 3364.03	  1306
 3364.13	  1301
 3364.23	  1300
 3364.33	  1297
 3364.43	  1295
 3364.53	  1293
 3364.63	  1290
 3364.73	  1287
 3364.83	  1285
 3364.93	  1278
 3365.03	  1272
 3365.13	  1269
 3365.23	  1265
 3365.33	  1261
 3365.43	  1257
 3365.53	  1253
 3365.63	  1250
 3365.73	  1246
 3365.83	  1243
 3365.93	  1239
 3366.03	  1235
 3366.13	  1231
 3366.23	  1229
 3366.33	  1225
 3366.43	  1221
 3366.53	  1220
 3366.63	  1220
 3366.73	  1221
 3366.83	  1220
 3366.93	  1220
 3367.04	  1220
 3367.14	  1216
 3367.24	  1213
 3367.34	  1212
 3367.44	  1210
 3367.54	  1206
 3367.64	  1201
 3367.74	  1196
 3367.84	  1189
 3367.94	  1189
 3368.04	  1188
 3368.14	  1182
 3368.24	  1178
 3368.34	  1176
 3368.44	  1174
 3368.54	  1174
 3368.64	  1173
 3368.74	  1172
 3368.84	  1171
 3368.94	  1169
 3369.04	  1168
 3369.14	  1165
 3369.24	  1162
 3369.34	  1159
 3369.44	  1156
 3369.54	  1155
 3369.64	  1154
 3369.74	  1152
 3369.84	  1151
 3369.94	  1150
 3370.04	  1147
 3370.14	  1145
 3370.24	  1145
 3370.34	  1143
 3370.44	  1141
 3370.54	  1139
 3370.64	  1140
 3370.74	  1139
 3370.84	  1136
 3370.94	  1132
 3371.04	  1133
 3371.14	  1135
 3371.24	  1131
 3371.34	  1124
 3371.44	  1127
 3371.54	  1129
 3371.64	  1125
 3371.74	  1125
 3371.84	  1124
 3371.94	  1121
 3372.04	  1120
 3372.14	  1118
 3372.24	  1117
 3372.34	  1115
 3372.44	  1113
 3372.54	  1110
 3372.64	  1107
 3372.74	  1104
 3372.84	  1104
 3372.94	  1102
 3373.04	  1101
 3373.14	  1098
 3373.24	  1097
 3373.34	  1097
 3373.44	  1096
 3373.54	  1095
 3373.64	  1095
 3373.74	  1094
 3373.84	  1095
 3373.94	  1095
 3374.04	  1095
 3374.14	  1097
 3374.24	  1098
 3374.34	  1097
 3374.44	  1096
 3374.54	  1095
 3374.64	  1095
 3374.74	  1096
 3374.84	  1096
 3374.94	  1096
 3375.05	  1095
 3375.15	  1099
 3375.25	  1104
 3375.35	  1099
 3375.45	  1094
 3375.55	  1095
 3375.65	  1095
 3375.75	  1095
 3375.85	  1096
 3375.95	  1098
 3376.05	  1099
 3376.15	  1099
 3376.25	  1098
 3376.35	  1097
 3376.45	  1095
 3376.55	  1094
 3376.65	  1093
 3376.75	  1093
 3376.85	  1093
 3376.95	  1092
 3377.05	  1092
 3377.15	  1091
 3377.25	  1091
 3377.35	  1091
 3377.45	  1092
 3377.55	  1093
 3377.65	  1093
 3377.75	  1092
 3377.85	  1093
 3377.95	  1095
 3378.05	  1096
 3378.15	  1096
 3378.25	  1100
 3378.35	  1102
 3378.45	  1101
 3378.55	  1100
 3378.65	  1101
 3378.75	  1103
 3378.85	  1100
 3378.95	  1099
 3379.05	  1101
 3379.15	  1101
 3379.25	  1102
 3379.35	  1107
 3379.45	  1106
 3379.55	  1107
 3379.65	  1110
 3379.75	  1110
 3379.85	  1109
 3379.95	  1109
 3380.05	  1110
 3380.15	  1112
 3380.25	  1114
 3380.35	  1115
 3380.45	  1116
 3380.55	  1117
 3380.65	  1116
 3380.75	  1117
 3380.85	  1118
 3380.95	  1118
 3381.05	  1118
 3381.15	  1120
 3381.25	  1121
 3381.35	  1123
 3381.45	  1124
 3381.55	  1126
 3381.65	  1126
 3381.75	  1128
 3381.85	  1128
 3381.95	  1129
 3382.05	  1132
 3382.15	  1134
 3382.25	  1134
 3382.35	  1138
 3382.45	  1142
 3382.55	  1143
 3382.65	  1141
 3382.75	  1146
 3382.85	  1152
 3382.95	  1148
 3383.06	  1149
 3383.16	  1150
 3383.26	  1150
 3383.36	  1153
 3383.46	  1154
 3383.56	  1156
 3383.66	  1157
 3383.76	  1159
 3383.86	  1161
 3383.96	  1162
 3384.06	  1164
 3384.16	  1166
 3384.26	  1167
 3384.36	  1170
 3384.46	  1172
 3384.56	  1174
 3384.66	  1177
 3384.76	  1179
 3384.86	  1181
 3384.96	  1182
 3385.06	  1182
 3385.16	  1184
 3385.26	  1185
 3385.36	  1187
 3385.46	  1190
 3385.56	  1192
 3385.66	  1194
 3385.76	  1194
 3385.86	  1197
 3385.96	  1199
 3386.06	  1199
 3386.16	  1199
 3386.26	  1199
 3386.36	  1201
 3386.46	  1208
 3386.56	  1218
 3386.66	  1219
 3386.76	  1219
 3386.86	  1226
 3386.96	  1231
 3387.06	  1231
 3387.16	  1233
 3387.26	  1232
 3387.36	  1233
 3387.46	  1234
 3387.56	  1236
 3387.66	  1236
 3387.76	  1238
 3387.86	  1242
 3387.96	  1245
 3388.06	  1249
 3388.16	  1255
 3388.26	  1257
 3388.36	  1259
 3388.46	  1262
 3388.56	  1265
 3388.66	  1268
 3388.76	  1272
 3388.86	  1276
 3388.96	  1280
 3389.06	  1283
 3389.16	  1287
 3389.26	  1292
 3389.36	  1294
 3389.46	  1294
 3389.56	  1297
 3389.66	  1300
 3389.76	  1299
 3389.86	  1299
 3389.96	  1303
 3390.06	  1307
 3390.16	  1310
 3390.26	  1313
 3390.36	  1319
 3390.46	  1322
 3390.56	  1323
 3390.66	  1328
 3390.76	  1326
 3390.86	  1326
 3390.96	  1330
 3391.07	  1333
 3391.17	  1338
 3391.27	  1341
 3391.37	  1344
 3391.47	  1348
 3391.57	  1351
 3391.67	  1355
 3391.77	  1358
 3391.87	  1363
 3391.97	  1367
 3392.07	  1371
 3392.17	  1374
 3392.27	  1377
 3392.37	  1379
 3392.47	  1381
 3392.57	  1384
 3392.67	  1388
 3392.77	  1392
 3392.87	  1396
 3392.97	  1400
 3393.07	  1403
 3393.17	  1406
 3393.27	  1410
 3393.37	  1413
 3393.47	  1416
 3393.57	  1418
 3393.67	  1423
 3393.77	  1428
 3393.87	  1430
 3393.97	  1431
 3394.07	  1441
 3394.17	  1450
 3394.27	  1448
 3394.37	  1451
 3394.47	  1455
 3394.57	  1458
 3394.67	  1464
 3394.77	  1468
 3394.87	  1473
 3394.97	  1478
 3395.07	  1481
 3395.17	  1484
 3395.27	  1487
 3395.37	  1490
 3395.47	  1493
 3395.57	  1497
 3395.67	  1501
 3395.77	  1504
 3395.87	  1508
 3395.97	  1514
 3396.07	  1519
 3396.17	  1524
 3396.27	  1528
 3396.37	  1534
 3396.47	  1539
 3396.57	  1542
 3396.67	  1545
 3396.77	  1549
 3396.87	  1553
 3396.97	  1556
 3397.07	  1559
 3397.17	  1565
 3397.27	  1570
 3397.37	  1574
 3397.47	  1578
 3397.57	  1583
 3397.67	  1586
 3397.77	  1592
 3397.87	  1598
 3397.97	  1600
 3398.07	  1601
 3398.17	  1609
 3398.27	  1614
 3398.37	  1616
 3398.47	  1620
 3398.57	  1624
 3398.67	  1629
 3398.77	  1634
 3398.87	  1638
 3398.97	  1643
 3399.08	  1646
 3399.18	  1650
 3399.28	  1654
 3399.38	  1657
 3399.48	  1662
 3399.58	  1666
 3399.68	  1671
 3399.78	  1677
 3399.88	  1680
 3399.98	  1684
 3400.08	  1689
 3400.18	  1693
 3400.28	  1699
 3400.38	  1704
 3400.48	  1709
 3400.58	  1713
 3400.68	  1716
 3400.78	  1718
 3400.88	  1723
 3400.98	  1729
 3401.08	  1732
 3401.18	  1736
 3401.28	  1742
 3401.38	  1749
 3401.48	  1752
 3401.58	  1753
 3401.68	  1761
 3401.78	  1768
 3401.88	  1771
 3401.98	  1779
 3402.08	  1782
 3402.18	  1786
 3402.28	  1793
 3402.38	  1797
 3402.48	  1802
 3402.58	  1808
 3402.68	  1813
 3402.78	  1818
 3402.88	  1823
 3402.98	  1828
 3403.08	  1834
 3403.18	  1840
 3403.28	  1844
 3403.38	  1849
 3403.48	  1855
 3403.58	  1860
 3403.68	  1865
 3403.78	  1871
 3403.88	  1875
 3403.98	  1881
 3404.08	  1887
 3404.18	  1892
 3404.28	  1898
 3404.38	  1905
 3404.48	  1912
 3404.58	  1921
 3404.68	  1928
 3404.78	  1933
 3404.88	  1939
 3404.98	  1945
 3405.08	  1951
 3405.18	  1955
 3405.28	  1956
 3405.38	  1965
 3405.48	  1975
 3405.58	  1973
 3405.68	  1976
 3405.78	  1983
 3405.88	  1987
 3405.98	  1994
 3406.08	  2000
 3406.18	  2006
 3406.28	  2012
 3406.38	  2018
 3406.48	  2024
 3406.58	  2031
 3406.68	  2038
 3406.78	  2043
 3406.88	  2049
 3406.98	  2054
 3407.09	  2058
 3407.19	  2063
 3407.29	  2069
 3407.39	  2077
 3407.49	  2082
 3407.59	  2088
 3407.69	  2094
 3407.79	  2101
 3407.89	  2106
 3407.99	  2112
 3408.09	  2120
 3408.19	  2127
 3408.29	  2131
 3408.39	  2135
 3408.49	  2141
 3408.59	  2149
 3408.69	  2153
 3408.79	  2157
 3408.89	  2162
 3408.99	  2166
 3409.09	  2172
 3409.19	  2179
 3409.29	  2183
 3409.39	  2185
 3409.49	  2194
 3409.59	  2202
 3409.69	  2206
 3409.79	  2212
 3409.89	  2218
 3409.99	  2224
 3410.09	  2231
 3410.19	  2238
 3410.29	  2246
 3410.39	  2251
 3410.49	  2257
 3410.59	  2262
 3410.69	  2267
 3410.79	  2273
 3410.89	  2279
 3410.99	  2284
 3411.09	  2291
 3411.19	  2297
 3411.29	  2304
 3411.39	  2311
 3411.49	  2316
 3411.59	  2320
 3411.69	  2324
 3411.79	  2328
 3411.89	  2334
 3411.99	  2339
 3412.09	  2342
 3412.19	  2349
 3412.29	  2357
 3412.39	  2359
 3412.49	  2361
 3412.59	  2369
 3412.69	  2378
 3412.79	  2382
 3412.89	  2385
 3412.99	  2396
 3413.09	  2405
 3413.19	  2411
 3413.29	  2419
 3413.39	  2424
 3413.49	  2428
 3413.59	  2437
 3413.69	  2444
 3413.79	  2450
 3413.89	  2455
 3413.99	  2460
 3414.09	  2464
 3414.19	  2470
 3414.29	  2476
 3414.39	  2480
 3414.49	  2485
 3414.59	  2490
 3414.69	  2494
 3414.79	  2498
 3414.89	  2503
 3414.99	  2508
  3415.1	  2512
  3415.2	  2517
  3415.3	  2524
  3415.4	  2531
  3415.5	  2536
  3415.6	  2542
  3415.7	  2549
  3415.8	  2554
  3415.9	  2562
  3416.0	  2568
  3416.1	  2573
  3416.2	  2579
  3416.3	  2586
  3416.4	  2593
  3416.5	  2597
  3416.6	  2599
  3416.7	  2608
  3416.8	  2618
  3416.9	  2618
  3417.0	  2623
  3417.1	  2632
  3417.2	  2638
  3417.3	  2645
  3417.4	  2652
  3417.5	  2656
  3417.6	  2662
  3417.7	  2667
  3417.8	  2672
  3417.9	  2678
  3418.0	  2684
  3418.1	  2690
  3418.2	  2695
  3418.3	  2701
  3418.4	  2706
  3418.5	  2711
  3418.6	  2716
  3418.7	  2720
  3418.8	  2724
  3418.9	  2729
  3419.0	  2735
  3419.1	  2744
  3419.2	  2748
  3419.3	  2752
  3419.4	  2759
  3419.5	  2764
  3419.6	  2770
  3419.7	  2775
  3419.8	  2782
  3419.9	  2789
  3420.0	  2792
  3420.1	  2793
  3420.2	  2797
  3420.3	  2801
  3420.4	  2807
  3420.5	  2814
  3420.6	  2817
  3420.7	  2818
  3420.8	  2826
  3420.9	  2831
  3421.0	  2833
  3421.1	  2838
  3421.2	  2843
  3421.3	  2850
  3421.4	  2857
  3421.5	  2861
  3421.6	  2866
  3421.7	  2870
  3421.8	  2874
  3421.9	  2877
  3422.0	  2881
  3422.1	  2885
  3422.2	  2888
  3422.3	  2891
  3422.4	  2894
  3422.5	  2900
  3422.6	  2904
  3422.7	  2908
  3422.8	  2913
  3422.9	  2917
 3423.01	  2922
 3423.11	  2929
 3423.21	  2932
 3423.31	  2936
 3423.41	  2938
 3423.51	  2944
 3423.61	  2949
 3423.71	  2950
 3423.81	  2952
 3423.91	  2957
 3424.01	  2963
 3424.11	  2965
 3424.21	  2965
 3424.31	  2971
 3424.41	  2977
 3424.51	  2979
 3424.61	  2983
 3424.71	  2986
 3424.81	  2988
 3424.91	  2994
 3425.01	  2999
 3425.11	  3003
 3425.21	  3008
 3425.31	  3013
 3425.41	  3017
 3425.51	  3019
 3425.61	  3021
 3425.71	  3022
 3425.81	  3022
 3425.91	  3022
 3426.01	  3023
 3426.11	  3024
 3426.21	  3030
 3426.31	  3032
 3426.41	  3033
 3426.51	  3036
 3426.61	  3038
 3426.71	  3040
 3426.81	  3043
 3426.91	  3044
 3427.01	  3049
 3427.11	  3052
 3427.21	  3056
 3427.31	  3058
 3427.41	  3058
 3427.51	  3059
 3427.61	  3061
 3427.71	  3065
 3427.81	  3068
 3427.91	  3070
 3428.01	  3077
 3428.11	  3086
 3428.21	  3086
 3428.31	  3086
 3428.41	  3091
 3428.51	  3092
 3428.61	  3092
 3428.71	  3093
 3428.81	  3093
 3428.91	  3095
 3429.01	  3096
 3429.11	  3097
 3429.21	  3099
 3429.31	  3100
 3429.41	  3103
 3429.51	  3104
 3429.61	  3108
 3429.71	  3107
 3429.81	  3107
 3429.91	  3108
 3430.01	  3107
 3430.11	  3105
 3430.21	  3106
 3430.31	  3105
 3430.41	  3106
 3430.51	  3107
 3430.61	  3107
 3430.71	  3111
 3430.81	  3114
 3430.91	  3114
 3431.02	  3112
 3431.12	  3113
 3431.22	  3114
 3431.32	  3113
 3431.42	  3109
 3431.52	  3111
 3431.62	  3111
 3431.72	  3109
 3431.82	  3109
 3431.92	  3108
 3432.02	  3104
 3432.12	  3106
 3432.22	  3109
 3432.32	  3106
 3432.42	  3103
 3432.52	  3104
 3432.62	  3103
 3432.72	  3102
 3432.82	  3101
 3432.92	  3102
 3433.02	  3105
 3433.12	  3102
 3433.22	  3101
 3433.32	  3101
 3433.42	  3099
 3433.52	  3098
 3433.62	  3098
 3433.72	  3095
 3433.82	  3094
 3433.92	  3093
 3434.02	  3090
 3434.12	  3089
 3434.22	  3085
 3434.32	  3083
 3434.42	  3081
 3434.52	  3079
 3434.62	  3075
 3434.72	  3072
 3434.82	  3072
 3434.92	  3076
 3435.02	  3074
 3435.12	  3068
 3435.22	  3067
 3435.32	  3068
 3435.42	  3063
 3435.52	  3058
 3435.62	  3060
 3435.72	  3060
 3435.82	  3055
 3435.92	  3054
 3436.02	  3050
 3436.12	  3044
 3436.22	  3042
 3436.32	  3038
 3436.42	  3035
 3436.52	  3031
 3436.62	  3028
 3436.72	  3027
 3436.82	  3025
 3436.92	  3023
 3437.02	  3021
 3437.12	  3019
 3437.22	  3017
 3437.32	  3012
 3437.42	  3007
 3437.52	  3003
 3437.62	  3000
 3437.72	  2996
 3437.82	  2991
 3437.92	  2987
 3438.02	  2984
 3438.12	  2979
 3438.22	  2974
 3438.32	  2973
 3438.42	  2969
 3438.52	  2962
 3438.62	  2958
 3438.72	  2956
 3438.82	  2950
 3438.92	  2946
 3439.03	  2943
 3439.13	  2939
 3439.23	  2932
 3439.33	  2931
 3439.43	  2931
 3439.53	  2923
 3439.63	  2914
 3439.73	  2913
 3439.83	  2908
 3439.93	  2902
 3440.03	  2897
 3440.13	  2894
 3440.23	  2889
 3440.33	  2885
 3440.43	  2881
 3440.53	  2875
 3440.63	  2871
 3440.73	  2868
 3440.83	  2864
 3440.93	  2860
 3441.03	  2855
 3441.13	  2850
 3441.23	  2843
 3441.33	  2836
 3441.43	  2830
 3441.53	  2824
 3441.63	  2817
 3441.73	  2811
 3441.83	  2805
 3441.93	  2798
 3442.03	  2796
 3442.13	  2794
 3442.23	  2786
 3442.33	  2779
 3442.43	  2775
 3442.53	  2771
 3442.63	  2763
 3442.73	  2754
 3442.83	  2747
 3442.93	  2740
 3443.03	  2731
 3443.13	  2725
 3443.23	  2719
 3443.33	  2711
 3443.43	  2707
 3443.53	  2705
 3443.63	  2698
 3443.73	  2691
 3443.83	  2686
 3443.93	  2677
 3444.03	  2672
 3444.13	  2666
 3444.23	  2659
 3444.33	  2654
 3444.43	  2649
 3444.53	  2644
 3444.63	  2638
 3444.73	  2632
 3444.83	  2627
 3444.93	  2619
 3445.03	  2613
 3445.13	  2606
 3445.23	  2599
 3445.33	  2591
 3445.43	  2584
 3445.53	  2579
 3445.63	  2571
 3445.73	  2563
 3445.83	  2558
 3445.93	  2550
 3446.03	  2541
 3446.13	  2537
 3446.23	  2532
 3446.33	  2525
 3446.43	  2516
 3446.53	  2511
 3446.63	  2506
 3446.73	  2495
 3446.83	  2484
 3446.93	  2480
 3447.04	  2477
 3447.14	  2467
 3447.24	  2460
 3447.34	  2452
 3447.44	  2444
 3447.54	  2439
 3447.64	  2430
 3447.74	  2426
 3447.84	  2420
 3447.94	  2413
 3448.04	  2406
 3448.14	  2399
 3448.24	  2392
 3448.34	  2385
 3448.44	  2376
 3448.54	  2369
 3448.64	  2361
 3448.74	  2354
 3448.84	  2348
 3448.94	  2341
 3449.04	  2334
 3449.14	  2328
 3449.24	  2322
 3449.34	  2314
 3449.44	  2307
 3449.54	  2300
 3449.64	  2293
 3449.74	  2286
 3449.84	  2279
 3449.94	  2271
 3450.04	  2263
 3450.14	  2257
 3450.24	  2250
 3450.34	  2244
 3450.44	  2237
 3450.54	  2227
 3450.64	  2224
 3450.74	  2222
 3450.84	  2210
 3450.94	  2201
 3451.04	  2197
 3451.14	  2192
 3451.24	  2186
 3451.34	  2179
 3451.44	  2171
 3451.54	  2162
 3451.64	  2153
 3451.74	  2144
 3451.84	  2135
 3451.94	  2127
 3452.04	  2120
 3452.14	  2111
 3452.24	  2104
 3452.34	  2096
 3452.44	  2088
 3452.54	  2080
 3452.64	  2072
 3452.74	  2064
 3452.84	  2058
 3452.94	  2053
 3453.04	  2048
 3453.14	  2041
 3453.24	  2034
 3453.34	  2029
 3453.44	  2024
 3453.54	  2018
 3453.64	  2010
 3453.74	  2006
 3453.84	  2001
 3453.94	  1991
 3454.04	  1982
 3454.14	  1977
 3454.24	  1971
 3454.34	  1966
 3454.44	  1958
 3454.54	  1952
 3454.64	  1943
 3454.74	  1936
 3454.84	  1933
 3454.94	  1924
 3455.05	  1916
 3455.15	  1910
 3455.25	  1903
 3455.35	  1896
 3455.45	  1888
 3455.55	  1879
 3455.65	  1871
 3455.75	  1864
 3455.85	  1857
 3455.95	  1851
 3456.05	  1846
 3456.15	  1840
 3456.25	  1835
 3456.35	  1830
 3456.45	  1823
 3456.55	  1817
 3456.65	  1810
 3456.75	  1801
 3456.85	  1794
 3456.95	  1785
 3457.05	  1779
 3457.15	  1774
 3457.25	  1766
 3457.35	  1757
 3457.45	  1750
 3457.55	  1744
 3457.65	  1733
 3457.75	  1725
 3457.85	  1719
 3457.95	  1719
 3458.05	  1714
 3458.15	  1706
 3458.25	  1706
 3458.35	  1704
 3458.45	  1694
 3458.55	  1688
 3458.65	  1681
 3458.75	  1673
 3458.85	  1668
 3458.95	  1661
 3459.05	  1656
 3459.15	  1650
 3459.25	  1645
 3459.35	  1641
 3459.45	  1635
 3459.55	  1630
 3459.65	  1624
 3459.75	  1619
 3459.85	  1615
 3459.95	  1610
 3460.05	  1604
 3460.15	  1599
 3460.25	  1595
 3460.35	  1590
 3460.45	  1584
 3460.55	  1578
 3460.65	  1573
 3460.75	  1567
 3460.85	  1561
 3460.95	  1556
 3461.05	  1551
 3461.15	  1547
 3461.25	  1543
 3461.35	  1537
 3461.45	  1533
 3461.55	  1527
 3461.65	  1523
 3461.75	  1517
 3461.85	  1509
 3461.95	  1507
 3462.05	  1507
 3462.15	  1498
 3462.25	  1489
 3462.35	  1487
 3462.45	  1482
 3462.55	  1477
 3462.65	  1473
 3462.75	  1468
 3462.85	  1462
 3462.95	  1457
 3463.06	  1452
 3463.16	  1448
 3463.26	  1442
 3463.36	  1437
 3463.46	  1432
 3463.56	  1426
 3463.66	  1420
 3463.76	  1415
 3463.86	  1411
 3463.96	  1408
 3464.06	  1404
 3464.16	  1400
 3464.26	  1397
 3464.36	  1394
 3464.46	  1390
 3464.56	  1385
 3464.66	  1381
 3464.76	  1377
 3464.86	  1371
 3464.96	  1364
 3465.06	  1362
 3465.16	  1363
 3465.26	  1358
 3465.36	  1354
 3465.46	  1355
 3465.56	  1354
 3465.66	  1349
 3465.76	  1344
 3465.86	  1340
 3465.96	  1335
 3466.06	  1330
 3466.16	  1327
 3466.26	  1320
 3466.36	  1315
 3466.46	  1312
 3466.56	  1309
 3466.66	  1305
 3466.76	  1300
 3466.86	  1296
 3466.96	  1293
 3467.06	  1290
 3467.16	  1288
 3467.26	  1284
 3467.36	  1282
 3467.46	  1278
 3467.56	  1273
 3467.66	  1270
 3467.76	  1265
 3467.86	  1261
 3467.96	  1258
 3468.06	  1254
 3468.16	  1250
 3468.26	  1248
 3468.36	  1246
 3468.46	  1244
 3468.56	  1241
 3468.66	  1236
 3468.76	  1234
 3468.86	  1233
 3468.96	  1227
 3469.06	  1222
 3469.16	  1222
 3469.26	  1222
 3469.36	  1217
 3469.46	  1210
 3469.56	  1211
 3469.66	  1212
 3469.76	  1205
 3469.86	  1200
 3469.96	  1198
 3470.06	  1193
 3470.16	  1191
 3470.26	  1190
 3470.36	  1188
 3470.46	  1187
 3470.56	  1186
 3470.66	  1183
 3470.76	  1180
 3470.86	  1179
 3470.96	  1177
 3471.07	  1173
 3471.17	  1170
 3471.27	  1167
 3471.37	  1164
 3471.47	  1162
 3471.57	  1160
 3471.67	  1159
 3471.77	  1158
 3471.87	  1157
 3471.97	  1156
 3472.07	  1154
 3472.17	  1151
 3472.27	  1149
 3472.37	  1144
 3472.47	  1140
 3472.57	  1138
 3472.67	  1137
 3472.77	  1136
 3472.87	  1133
 3472.97	  1132
 3473.07	  1131
 3473.17	  1129
 3473.27	  1132
 3473.37	  1136
 3473.47	  1130
 3473.57	  1124
 3473.67	  1126
 3473.77	  1125
 3473.87	  1122
 3473.97	  1121
 3474.07	  1118
 3474.17	  1118
 3474.27	  1117
 3474.37	  1115
 3474.47	  1113
 3474.57	  1112
 3474.67	  1111
 3474.77	  1109
 3474.87	  1107
 3474.97	  1106
 3475.07	  1106
 3475.17	  1106
 3475.27	  1107
 3475.37	  1107
 3475.47	  1107
 3475.57	  1107
 3475.67	  1107
 3475.77	  1105
 3475.87	  1102
 3475.97	  1101
 3476.07	  1100
 3476.17	  1096
 3476.27	  1091
 3476.37	  1091
 3476.47	  1092
 3476.57	  1089
 3476.67	  1088
 3476.77	  1091
 3476.87	  1092
 3476.97	  1090
 3477.07	  1088
 3477.17	  1089
 3477.27	  1088
 3477.37	  1091
 3477.47	  1095
 3477.57	  1093
 3477.67	  1093
 3477.77	  1094
 3477.87	  1094
 3477.97	  1093
 3478.07	  1092
 3478.17	  1091
 3478.27	  1090
 3478.37	  1089
 3478.47	  1088
 3478.57	  1087
 3478.67	  1086
 3478.77	  1086
 3478.87	  1085
 3478.97	  1085
 3479.08	  1086
 3479.18	  1087
 3479.28	  1088
 3479.38	  1088
 3479.48	  1087
 3479.58	  1087
 3479.68	  1087
 3479.78	  1087
 3479.88	  1085
 3479.98	  1084
 3480.08	  1086
 3480.18	  1088
 3480.28	  1086
 3480.38	  1086
 3480.48	  1088
 3480.58	  1090
 3480.68	  1088
 3480.78	  1082
 3480.88	  1084
 3480.98	  1087
 3481.08	  1084
 3481.18	  1082
 3481.28	  1080
 3481.38	  1079
 3481.48	  1081
 3481.58	  1083
 3481.68	  1086
 3481.78	  1087
 3481.88	  1089
 3481.98	  1091
 3482.08	  1092
 3482.18	  1093
 3482.28	  1094
 3482.38	  1095
 3482.48	  1095
 3482.58	  1094
 3482.68	  1094
 3482.78	  1095
 3482.88	  1095
 3482.98	  1095
 3483.08	  1097
 3483.18	  1101
 3483.28	  1105
 3483.38	  1107
 3483.48	  1107
 3483.58	  1110
 3483.68	  1112
 3483.78	  1110
 3483.88	  1109
 3483.98	  1110
 3484.08	  1111
 3484.18	  1113
 3484.28	  1113
 3484.38	  1112
 3484.48	  1111
 3484.58	  1113
 3484.68	  1118
 3484.78	  1114
 3484.88	  1109
 3484.98	  1112
 3485.08	  1114
 3485.18	  1115
 3485.28	  1117
 3485.38	  1118
 3485.48	  1120
 3485.58	  1123
 3485.68	  1124
 3485.78	  1127
 3485.88	  1129
 3485.98	  1131
 3486.08	  1133
 3486.18	  1134
 3486.28	  1134
 3486.38	  1134
 3486.48	  1136
 3486.58	  1138
 3486.68	  1141
 3486.78	  1142
 3486.88	  1144
 3486.98	  1146
 3487.09	  1146
 3487.19	  1146
 3487.29	  1149
 3487.39	  1152
 3487.49	  1153
 3487.59	  1154
 3487.69	  1158
 3487.79	  1161
 3487.89	  1162
 3487.99	  1164
 3488.09	  1169
 3488.19	  1172
 3488.29	  1172
 3488.39	  1174
 3488.49	  1178
 3488.59	  1179
 3488.69	  1183
 3488.79	  1189
 3488.89	  1188
 3488.99	  1189
 3489.09	  1193
 3489.19	  1193
 3489.29	  1192
 3489.39	  1192
 3489.49	  1191
 3489.59	  1191
 3489.69	  1191
 3489.79	  1193
 3489.89	  1197
 3489.99	  1200
 3490.09	  1204
 3490.19	  1207
 3490.29	  1211
 3490.39	  1214
 3490.49	  1218
 3490.59	  1222
 3490.69	  1225
 3490.79	  1227
 3490.89	  1229
 3490.99	  1232
 3491.09	  1236
 3491.19	  1239
 3491.29	  1242
 3491.39	  1246
 3491.49	  1249
 3491.59	  1250
 3491.69	  1250
 3491.79	  1252
 3491.89	  1255
 3491.99	  1254
 3492.09	  1252
 3492.19	  1259
 3492.29	  1267
 3492.39	  1267
 3492.49	  1272
 3492.59	  1275
 3492.69	  1275
 3492.79	  1278
 3492.89	  1281
 3492.99	  1285
 3493.09	  1286
 3493.19	  1287
 3493.29	  1289
 3493.39	  1291
 3493.49	  1293
 3493.59	  1295
 3493.69	  1296
 3493.79	  1299
 3493.89	  1303
 3493.99	  1306
 3494.09	  1310
 3494.19	  1312
 3494.29	  1315
 3494.39	  1318
 3494.49	  1322
 3494.59	  1328
 3494.69	  1331
 3494.79	  1333
 3494.89	  1336
 3494.99	  1339
  3495.1	  1343
  3495.2	  1347
  3495.3	  1352
  3495.4	  1356
  3495.5	  1360
  3495.6	  1366
  3495.7	  1371
  3495.8	  1373
  3495.9	  1378
  3496.0	  1384
  3496.1	  1382
  3496.2	  1380
  3496.3	  1385
  3496.4	  1389
  3496.5	  1391
  3496.6	  1394
  3496.7	  1396
  3496.8	  1398
  3496.9	  1401
  3497.0	  1404
  3497.1	  1407
  3497.2	  1412
  3497.3	  1417
  3497.4	  1419
  3497.5	  1422
  3497.6	  1425
  3497.7	  1428
  3497.8	  1432
  3497.9	  1435
  3498.0	  1438
  3498.1	  1441
  3498.2	  1444
  3498.3	  1448
  3498.4	  1452
  3498.5	  1454
  3498.6	  1459
  3498.7	  1465
  3498.8	  1469
  3498.9	  1473
  3499.0	  1479
  3499.1	  1486
  3499.2	  1488
  3499.3	  1489
  3499.4	  1494
  3499.5	  1498
  3499.6	  1501
  3499.7	  1502
  3499.8	  1507
  3499.9	  1510
  3500.0	  1516
  3500.1	  1525
  3500.2	  1527
  3500.3	  1530
  3500.4	  1534
  3500.5	  1537
  3500.6	  1540
  3500.7	  1544
  3500.8	  1547
  3500.9	  1551
  3501.0	  1555
  3501.1	  1560
  3501.2	  1565
  3501.3	  1569
  3501.4	  1573
  3501.5	  1575
  3501.6	  1579
  3501.7	  1584
  3501.8	  1590
  3501.9	  1594
  3502.0	  1599
  3502.1	  1605
  3502.2	  1611
  3502.3	  1617
  3502.4	  1624
  3502.5	  1628
  3502.6	  1629
  3502.7	  1634
  3502.8	  1640
  3502.9	  1644
 3503.01	  1648
 3503.11	  1654
 3503.21	  1659
 3503.31	  1662
 3503.41	  1661
 3503.51	  1669
 3503.61	  1676
 3503.71	  1676
 3503.81	  1678
 3503.91	  1682
 3504.01	  1684
 3504.11	  1690
 3504.21	  1695
 3504.31	  1702
 3504.41	  1709
 3504.51	  1713
 3504.61	  1719
 3504.71	  1725
 3504.81	  1729
 3504.91	  1734
 3505.01	  1740
 3505.11	  1745
 3505.21	  1750
 3505.31	  1755
 3505.41	  1761
 3505.51	  1766
 3505.61	  1769
 3505.71	  1774
 3505.81	  1778
 3505.91	  1783
 3506.01	  1787
 3506.11	  1791
 3506.21	  1797
 3506.31	  1804
 3506.41	  1810
 3506.51	  1814
 3506.61	  1820
 3506.71	  1827
 3506.81	  1833
 3506.91	  1838
 3507.01	  1843
 3507.11	  1847
 3507.21	  1855
 3507.31	  1863
 3507.41	  1864
 3507.51	  1865
 3507.61	  1874
 3507.71	  1879
 3507.81	  1883
 3507.91	  1889
 3508.01	  1893
 3508.11	  1898
 3508.21	  1901
 3508.31	  1904
 3508.41	  1907
 3508.51	  1912
 3508.61	  1917
 3508.71	  1923
 3508.81	  1929
 3508.91	  1936
 3509.01	  1942
 3509.11	  1949
 3509.21	  1957
 3509.31	  1964
 3509.41	  1970
 3509.51	  1976
 3509.61	  1983
 3509.71	  1987
 3509.81	  1991
 3509.91	  1996
 3510.01	  2002
 3510.11	  2005
 3510.21	  2008
 3510.31	  2015
 3510.41	  2023
 3510.51	  2026
 3510.61	  2031
 3510.71	  2037
 3510.81	  2044
 3510.91	  2048
 3511.02	  2051
 3511.12	  2058
 3511.22	  2061
 3511.32	  2066
 3511.42	  2074
 3511.52	  2078
 3511.62	  2085
 3511.72	  2093
 3511.82	  2100
 3511.92	  2106
 3512.02	  2113
 3512.12	  2119
 3512.22	  2124
 3512.32	  2130
 3512.42	  2136
 3512.52	  2143
 3512.62	  2150
 3512.72	  2156
 3512.82	  2163
 3512.92	  2170
 3513.02	  2177
 3513.12	  2182
 3513.22	  2188
 3513.32	  2193
 3513.42	  2196
 3513.52	  2201
 3513.62	  2206
 3513.72	  2210
 3513.82	  2215
 3513.92	  2220
 3514.02	  2228
 3514.12	  2235
 3514.22	  2239
 3514.32	  2244
 3514.42	  2251
 3514.52	  2260
 3514.62	  2263
 3514.72	  2264
 3514.82	  2273
 3514.92	  2283
 3515.02	  2284
 3515.12	  2290
 3515.22	  2296
 3515.32	  2301
 3515.42	  2310
 3515.52	  2316
 3515.62	  2322
 3515.72	  2328
 3515.82	  2332
 3515.92	  2336
 3516.02	  2343
 3516.12	  2348
 3516.22	  2355
 3516.32	  2362
 3516.42	  2368
 3516.52	  2374
 3516.62	  2379
 3516.72	  2384
 3516.82	  2390
 3516.92	  2396
 3517.02	  2400
 3517.12	  2405
 3517.22	  2412
 3517.32	  2418
 3517.42	  2423
 3517.52	  2431
 3517.62	  2437
 3517.72	  2443
 3517.82	  2447
 3517.92	  2455
 3518.02	  2462
 3518.12	  2467
 3518.22	  2471
 3518.32	  2476
 3518.42	  2479
 3518.52	  2489
 3518.62	  2499
 3518.72	  2501
 3518.82	  2502
 3518.92	  2512
 3519.03	  2521
 3519.13	  2527
 3519.23	  2534
 3519.33	  2539
 3519.43	  2546
 3519.53	  2551
 3519.63	  2556
 3519.73	  2562
 3519.83	  2567
 3519.93	  2573
 3520.03	  2578
 3520.13	  2584
 3520.23	  2588
 3520.33	  2592
 3520.43	  2598
 3520.53	  2604
 3520.63	  2609
 3520.73	  2616
 3520.83	  2621
 3520.93	  2627
 3521.03	  2633
 3521.13	  2641
 3521.23	  2647
 3521.33	  2653
 3521.43	  2659
 3521.53	  2662
 3521.63	  2670
 3521.73	  2679
 3521.83	  2682
 3521.93	  2685
 3522.03	  2692
 3522.13	  2698
 3522.23	  2703
 3522.33	  2705
 3522.43	  2712
 3522.53	  2716
 3522.63	  2724
 3522.73	  2733
 3522.83	  2737
 3522.93	  2740
 3523.03	  2744
 3523.13	  2748
 3523.23	  2752
 3523.33	  2756
 3523.43	  2760
 3523.53	  2765
 3523.63	  2770
 3523.73	  2773
 3523.83	  2776
 3523.93	  2781
 3524.03	  2787
 3524.13	  2792
 3524.23	  2798
 3524.33	  2803
 3524.43	  2810
 3524.53	  2815
 3524.63	  2819
 3524.73	  2823
 3524.83	  2828
 3524.93	  2832
 3525.03	  2837
 3525.13	  2843
 3525.23	  2848
 3525.33	  2854
 3525.43	  2861
 3525.53	  2863
 3525.63	  2866
 3525.73	  2872
 3525.83	  2880
 3525.93	  2884
 3526.03	  2885
 3526.13	  2895
 3526.23	  2905
 3526.33	  2905
 3526.43	  2909
 3526.53	  2915
 3526.63	  2917
 3526.73	  2922
 3526.83	  2928
 3526.93	  2932
 3527.04	  2938
 3527.14	  2943
 3527.24	  2947
 3527.34	  2952
 3527.44	  2956
 3527.54	  2959
 3527.64	  2963
 3527.74	  2966
 3527.84	  2971
 3527.94	  2974
 3528.04	  2978
 3528.14	  2982
 3528.24	  2985
 3528.34	  2986
 3528.44	  2989
 3528.54	  2993
 3528.64	  2995
 3528.74	  2996
 3528.84	  3002
 3528.94	  3005
 3529.04	  3008
 3529.14	  3012
 3529.24	  3015
 3529.34	  3019
 3529.44	  3021
 3529.54	  3025
 3529.64	  3029
 3529.74	  3031
 3529.84	  3037
 3529.94	  3045
 3530.04	  3043
 3530.14	  3043
 3530.24	  3050
 3530.34	  3053
 3530.44	  3055
 3530.54	  3060
 3530.64	  3062
 3530.74	  3066
 3530.84	  3070
 3530.94	  3073
 3531.04	  3075
 3531.14	  3077
 3531.24	  3080
 3531.34	  3083
 3531.44	  3085
 3531.54	  3088
 3531.64	  3093
 3531.74	  3095
 3531.84	  3097
 3531.94	  3100
 3532.04	  3100
 3532.14	  3103
 3532.24	  3104
 3532.34	  3105
 3532.44	  3105
 3532.54	  3108
 3532.64	  3111
 3532.74	  3112
 3532.84	  3115
 3532.94	  3119
 3533.04	  3124
 3533.14	  3123
 3533.24	  3124
 3533.34	  3128
 3533.44	  3129
 3533.54	  3130
 3533.64	  3131
 3533.74	  3135
 3533.84	  3136
 3533.94	  3137
 3534.04	  3139
 3534.14	  3138
 3534.24	  3138
 3534.34	  3138
 3534.44	  3138
 3534.54	  3138
 3534.64	  3138
 3534.74	  3139
 3534.84	  3140
 3534.94	  3143
 3535.05	  3146
 3535.15	  3147
 3535.25	  3148
 3535.35	  3151
 3535.45	  3151
 3535.55	  3152
 3535.65	  3153
 3535.75	  3152
 3535.85	  3152
 3535.95	  3152
 3536.05	  3154
 3536.15	  3156
 3536.25	  3157
 3536.35	  3158
 3536.45	  3159
 3536.55	  3158
 3536.65	  3159
 3536.75	  3162
 3536.85	  3160
 3536.95	  3158
 3537.05	  3159
 3537.15	  3156
 3537.25	  3152
 3537.35	  3146
 3537.45	  3148
 3537.55	  3151
 3537.65	  3144
 3537.75	  3143
 3537.85	  3143
 3537.95	  3141
 3538.05	  3142
 3538.15	  3142
 3538.25	  3142
 3538.35	  3143
 3538.45	  3144
 3538.55	  3143
 3538.65	  3141
 3538.75	  3140
 3538.85	  3136
 3538.95	  3133
 3539.05	  3132
 3539.15	  3128
 3539.25	  3123
 3539.35	  3122
 3539.45	  3121
 3539.55	  3119
 3539.65	  3119
 3539.75	  3115
 3539.85	  3112
 3539.95	  3109
 3540.05	  3107
 3540.15	  3105
 3540.25	  3104
 3540.35	  3101
 3540.45	  3100
 3540.55	  3096
 3540.65	  3095
 3540.75	  3093
 3540.85	  3091
 3540.95	  3092
 3541.05	  3088
 3541.15	  3089
 3541.25	  3091
 3541.35	  3086
 3541.45	  3080
 3541.55	  3080
 3541.65	  3077
 3541.75	  3074
 3541.85	  3072
 3541.95	  3066
 3542.05	  3062
 3542.15	  3060
 3542.25	  3057
 3542.35	  3054
 3542.45	  3052
 3542.55	  3047
 3542.65	  3044
 3542.75	  3042
 3542.85	  3041
 3542.95	  3039
 3543.06	  3036
 3543.16	  3032
 3543.26	  3027
 3543.36	  3022
 3543.46	  3017
 3543.56	  3014
 3543.66	  3008
 3543.76	  3002
 3543.86	  2998
 3543.96	  2994
 3544.06	  2989
 3544.16	  2986
 3544.26	  2983
 3544.36	  2980
 3544.46	  2973
 3544.56	  2967
 3544.66	  2964
 3544.76	  2960
 3544.86	  2956
 3544.96	  2950
 3545.06	  2946
 3545.16	  2940
 3545.26	  2936
 3545.36	  2933
 3545.46	  2926
 3545.56	  2921
 3545.66	  2917
 3545.76	  2912
 3545.86	  2908
 3545.96	  2902
 3546.06	  2897
 3546.16	  2892
 3546.26	  2886
 3546.36	  2881
 3546.46	  2874
 3546.56	  2867
 3546.66	  2862
 3546.76	  2856
 3546.86	  2852
 3546.96	  2847
 3547.06	  2843
 3547.16	  2837
 3547.26	  2831
 3547.36	  2824
 3547.46	  2818
 3547.56	  2812
 3547.66	  2805
 3547.76	  2799
 3547.86	  2793
 3547.96	  2787
 3548.06	  2783
 3548.16	  2777
 3548.26	  2771
 3548.36	  2767
 3548.46	  2763
 3548.56	  2755
 3548.66	  2745
 3548.76	  2747
 3548.86	  2747
 3548.96	  2736
 3549.06	  2731
 3549.16	  2723
 3549.26	  2715
 3549.36	  2708
 3549.46	  2699
 3549.56	  2692
 3549.66	  2684
 3549.76	  2678
 3549.86	  2671
 3549.96	  2663
 3550.06	  2656
 3550.16	  2652
 3550.26	  2645
 3550.36	  2638
 3550.46	  2631
 3550.56	  2624
 3550.66	  2618
 3550.76	  2613
 3550.86	  2606
 3550.96	  2600
 3551.07	  2591
 3551.17	  2585
 3551.27	  2579
 3551.37	  2570
 3551.47	  2564
 3551.57	  2558
 3551.67	  2552
 3551.77	  2546
 3551.87	  2539
 3551.97	  2535
 3552.07	  2529
 3552.17	  2524
 3552.27	  2516
 3552.37	  2506
 3552.47	  2500
 3552.57	  2497
 3552.67	  2486
 3552.77	  2475
 3552.87	  2472
 3552.97	  2466
 3553.07	  2459
 3553.17	  2453
 3553.27	  2448
 3553.37	  2442
 3553.47	  2435
 3553.57	  2428
 3553.67	  2420
 3553.77	  2412
 3553.87	  2405
 3553.97	  2396
 3554.07	  2389
 3554.17	  2381
 3554.27	  2373
 3554.37	  2368
 3554.47	  2361
 3554.57	  2352
 3554.67	  2345
 3554.77	  2335
 3554.87	  2328
 3554.97	  2323
 3555.07	  2316
 3555.17	  2311
 3555.27	  2304
 3555.37	  2296
 3555.47	  2290
 3555.57	  2287
 3555.67	  2283
 3555.77	  2275
 3555.87	  2267
 3555.97	  2261
 3556.07	  2255
 3556.17	  2246
 3556.27	  2237
 3556.37	  2229
 3556.47	  2218
 3556.57	  2212
 3556.67	  2207
 3556.77	  2197
 3556.87	  2190
 3556.97	  2185
 3557.07	  2178
 3557.17	  2170
 3557.27	  2162
 3557.37	  2155
 3557.47	  2148
 3557.57	  2139
 3557.67	  2130
 3557.77	  2121
 3557.87	  2114
 3557.97	  2108
 3558.07	  2103
 3558.17	  2094
 3558.27	  2085
 3558.37	  2077
 3558.47	  2069
 3558.57	  2062
 3558.67	  2056
 3558.77	  2049
 3558.87	  2043
 3558.97	  2038
 3559.08	  2032
 3559.18	  2026
 3559.28	  2024
 3559.38	  2020
 3559.48	  2013
 3559.58	  2003
 3559.68	  1997
 3559.78	  1992
 3559.88	  1981
 3559.98	  1968
 3560.08	  1964
 3560.18	  1960
 3560.28	  1950
 3560.38	  1944
 3560.48	  1938
 3560.58	  1929
 3560.68	  1923
 3560.78	  1916
 3560.88	  1908
 3560.98	  1902
 3561.08	  1896
 3561.18	  1890
 3561.28	  1885
 3561.38	  1880
 3561.48	  1875
 3561.58	  1869
 3561.68	  1862
 3561.78	  1855
 3561.88	  1846
 3561.98	  1838
 3562.08	  1830
 3562.18	  1823
 3562.28	  1818
 3562.38	  1813
 3562.48	  1809
 3562.58	  1803
 3562.68	  1797
 3562.78	  1788
 3562.88	  1780
 3562.98	  1771
 3563.08	  1764
 3563.18	  1758
 3563.28	  1752
 3563.38	  1746
 3563.48	  1740
 3563.58	  1733
 3563.68	  1723
 3563.78	  1720
 3563.88	  1717
 3563.98	  1706
 3564.08	  1695
 3564.18	  1692
 3564.28	  1687
 3564.38	  1680
 3564.48	  1673
 3564.58	  1666
 3564.68	  1662
 3564.78	  1658
 3564.88	  1653
 3564.98	  1647
 3565.08	  1641
 3565.18	  1637
 3565.28	  1630
 3565.38	  1624
 3565.48	  1619
 3565.58	  1611
 3565.68	  1606
 3565.78	  1600
 3565.88	  1593
 3565.98	  1588
 3566.08	  1582
 3566.18	  1577
 3566.28	  1570
 3566.38	  1563
 3566.48	  1558
 3566.58	  1556
 3566.68	  1550
 3566.78	  1543
 3566.88	  1540
 3566.98	  1537
 3567.09	  1529
 3567.19	  1522
 3567.29	  1517
 3567.39	  1512
 3567.49	  1506
 3567.59	  1500
 3567.69	  1498
 3567.79	  1492
 3567.89	  1489
 3567.99	  1487
 3568.09	  1479
 3568.19	  1473
 3568.29	  1468
 3568.39	  1463
 3568.49	  1457
 3568.59	  1450
 3568.69	  1442
 3568.79	  1436
 3568.89	  1431
 3568.99	  1424
 3569.09	  1419
 3569.19	  1414
 3569.29	  1409
 3569.39	  1403
 3569.49	  1400
 3569.59	  1397
 3569.69	  1394
 3569.79	  1390
 3569.89	  1385
 3569.99	  1382
 3570.09	  1378
 3570.19	  1373
 3570.29	  1368
 3570.39	  1363
 3570.49	  1359
 3570.59	  1356
 3570.69	  1353
 3570.79	  1347
 3570.89	  1340
 3570.99	  1336
 3571.09	  1333
 3571.19	  1325
 3571.29	  1315
 3571.39	  1315
 3571.49	  1314
 3571.59	  1307
 3571.69	  1303
 3571.79	  1297
 3571.89	  1290
 3571.99	  1288
 3572.09	  1285
 3572.19	  1282
 3572.29	  1278
 3572.39	  1273
 3572.49	  1268
 3572.59	  1265
 3572.69	  1260
 3572.79	  1257
 3572.89	  1253
 3572.99	  1248
 3573.09	  1243
 3573.19	  1236
 3573.29	  1233
 3573.39	  1228
 3573.49	  1225
 3573.59	  1220
 3573.69	  1217
 3573.79	  1215
 3573.89	  1211
 3573.99	  1208
 3574.09	  1206
 3574.19	  1203
 3574.29	  1200
 3574.39	  1195
 3574.49	  1192
 3574.59	  1191
 3574.69	  1190
 3574.79	  1188
 3574.89	  1184
 3574.99	  1177
  3575.1	  1175
  3575.2	  1176
  3575.3	  1166
  3575.4	  1158
  3575.5	  1156
  3575.6	  1152
  3575.7	  1150
  3575.8	  1148
  3575.9	  1146
  3576.0	  1143
  3576.1	  1139
  3576.2	  1136
  3576.3	  1132
  3576.4	  1130
  3576.5	  1127
  3576.6	  1124
  3576.7	  1120
  3576.8	  1118
  3576.9	  1115
  3577.0	  1113
  3577.1	  1111
  3577.2	  1109
  3577.3	  1108
  3577.4	  1108
  3577.5	  1107
  3577.6	  1104
  3577.7	  1101
  3577.8	  1099
  3577.9	  1097
  3578.0	  1093
  3578.1	  1090
  3578.2	  1091
  3578.3	  1090
  3578.4	  1083
  3578.5	  1077
  3578.6	  1074
  3578.7	  1072
  3578.8	  1067
  3578.9	  1063
  3579.0	  1058
  3579.1	  1052
  3579.2	  1050
  3579.3	  1051
  3579.4	  1048
  3579.5	  1045
  3579.6	  1043
  3579.7	  1042
  3579.8	  1041
  3579.9	  1040
  3580.0	  1038
  3580.1	  1036
  3580.2	  1034
  3580.3	  1032
  3580.4	  1028
  3580.5	  1025
  3580.6	  1022
  3580.7	  1020
  3580.8	  1019
  3580.9	  1017
  3581.0	  1014
  3581.1	  1012
  3581.2	  1009
  3581.3	  1006
  3581.4	  1004
  3581.5	  1003
  3581.6	  1002
  3581.7	  1001
  3581.8	   999
  3581.9	   998
  3582.0	   997
  3582.1	   993
  3582.2	   989
  3582.3	   989
  3582.4	   990
  3582.5	   986
  3582.6	   981
  3582.7	   984
  3582.8	   988
  3582.9	   982
 3583.01	   980
 3583.11	   979
 3583.21	   976
 3583.31	   975
 3583.41	   974
 3583.51	   972
 3583.61	   971
 3583.71	   970
 3583.81	   967
 3583.91	   963
 3584.01	   961
 3584.11	   960
 3584.21	   961
 3584.31	   962
 3584.41	   962
 3584.51	   962
 3584.61	   962
 3584.71	   961
 3584.81	   960
 3584.91	   958
 3585.01	   955
 3585.11	   953
 3585.21	   949
 3585.31	   946
 3585.41	   945
 3585.51	   943
 3585.61	   942
 3585.71	   940
 3585.81	   939
 3585.91	   938
 3586.01	   937
 3586.11	   936
 3586.21	   937
 3586.31	   934
 3586.41	   937
 3586.51	   940
 3586.61	   935
 3586.71	   929
 3586.81	   929
 3586.91	   926
 3587.01	   923
 3587.11	   920
 3587.21	   918
 3587.31	   916
 3587.41	   915
 3587.51	   915
 3587.61	   916
 3587.71	   919
 3587.81	   919
 3587.91	   918
 3588.01	   916
 3588.11	   913
 3588.21	   911
 3588.31	   910
 3588.41	   910
 3588.51	   910
 3588.61	   909
 3588.71	   908
 3588.81	   911
 3588.91	   911
 3589.01	   909
 3589.11	   908
 3589.21	   908
 3589.31	   907
 3589.41	   906
 3589.51	   907
 3589.61	   908
 3589.71	   905
 3589.81	   901
 3589.91	   903
 3590.01	   903
 3590.11	   901
 3590.21	   899
 3590.31	   900
 3590.41	   899
 3590.51	   902
 3590.61	   904
 3590.71	   902
 3590.81	   900
 3590.91	   898
 3591.02	   897
 3591.12	   896
 3591.22	   895
 3591.32	   894
 3591.42	   894
 3591.52	   894
 3591.62	   894
 3591.72	   894
 3591.82	   895
 3591.92	   897
 3592.02	   896
 3592.12	   896
 3592.22	   898
 3592.32	   899
 3592.42	   899
 3592.52	   898
 3592.62	   896
 3592.72	   895
 3592.82	   896
 3592.92	   897
 3593.02	   898
 3593.12	   896
 3593.22	   897
 3593.32	   897
 3593.42	   894
 3593.52	   891
 3593.62	   892
 3593.72	   892
 3593.82	   888
 3593.92	   883
 3594.02	   886
 3594.12	   891
 3594.22	   890
 3594.32	   890
 3594.42	   890
 3594.52	   887
 3594.62	   888
 3594.72	   888
 3594.82	   886
 3594.92	   885
 3595.02	   885
 3595.12	   885
 3595.22	   884
 3595.32	   884
 3595.42	   886
 3595.52	   887
 3595.62	   888
 3595.72	   885
 3595.82	   884
 3595.92	   885
 3596.02	   883
 3596.12	   880
 3596.22	   879
 3596.32	   879
 3596.42	   881
 3596.52	   882
 3596.62	   882
 3596.72	   884
 3596.82	   885
 3596.92	   885
 3597.02	   885
 3597.12	   884
 3597.22	   883
 3597.32	   881
 3597.42	   881
 3597.52	   880
 3597.62	   878
 3597.72	   882
 3597.82	   888
 3597.92	   885
 3598.02	   881
 3598.12	   882
 3598.22	   883
 3598.32	   882
 3598.42	   883
 3598.52	   883
 3598.62	   883
 3598.72	   883
 3598.82	   882
 3598.92	   882
 3599.03	   882
 3599.13	   882
 3599.23	   883
 3599.33	   884
 3599.43	   885
 3599.53	   885
 3599.63	   886
 3599.73	   887
 3599.83	   889
 3599.93	   888
 3600.03	   888
 3600.13	   888
 3600.23	   888
 3600.33	   886
 3600.43	   888
 3600.53	   890
 3600.63	   889
 3600.73	   887
 3600.83	   886
 3600.93	   887
 3601.03	   884
 3601.13	   881
 3601.23	   882
 3601.33	   885
 3601.43	   884
 3601.53	   885
 3601.63	   887
 3601.73	   886
 3601.83	   888
 3601.93	   891
 3602.03	   888
 3602.13	   887
 3602.23	   889
 3602.33	   890
 3602.43	   892
 3602.53	   893
 3602.63	   894
 3602.73	   894
 3602.83	   895
 3602.93	   893
 3603.03	   892
 3603.13	   892
 3603.23	   893
 3603.33	   893
 3603.43	   895
 3603.53	   900
 3603.63	   904
 3603.73	   907
 3603.83	   909
 3603.93	   909
 3604.03	   910
 3604.13	   910
 3604.23	   910
 3604.33	   909
 3604.43	   907
 3604.53	   908
 3604.63	   911
 3604.73	   910
 3604.83	   908
 3604.93	   910
 3605.03	   912
 3605.13	   909
 3605.23	   906
 3605.33	   911
 3605.43	   916
 3605.53	   913
 3605.63	   914
 3605.73	   914
 3605.83	   913
 3605.93	   914
 3606.03	   914
 3606.13	   915
 3606.23	   916
 3606.33	   917
 3606.43	   918
 3606.53	   916
 3606.63	   915
 3606.73	   914
 3606.83	   912
 3606.93	   912
 3607.04	   912
 3607.14	   912
 3607.24	   914
 3607.34	   913
 3607.44	   912
 3607.54	   913
 3607.64	   912
 3607.74	   912
 3607.84	   914
 3607.94	   914
 3608.04	   916
 3608.14	   916
 3608.24	   916
 3608.34	   916
 3608.44	   916
 3608.54	   916
 3608.64	   915
 3608.74	   916
 3608.84	   916
 3608.94	   915
 3609.04	   920
 3609.14	   925
 3609.24	   920
 3609.34	   918
 3609.44	   922
 3609.54	   924
 3609.64	   924
 3609.74	   925
 3609.84	   926
 3609.94	   926
 3610.04	   926
 3610.14	   925
 3610.24	   926
 3610.34	   927
 3610.44	   929
 3610.54	   931
 3610.64	   933
 3610.74	   934
 3610.84	   934
 3610.94	   937
 3611.04	   939
 3611.14	   939
 3611.24	   942
 3611.34	   942
 3611.44	   942
 3611.54	   941
 3611.64	   939
 3611.74	   938
 3611.84	   939
 3611.94	   939
 3612.04	   938
 3612.14	   939
 3612.24	   941
 3612.34	   940
 3612.44	   940
 3612.54	   943
 3612.64	   945
 3612.74	   945
 3612.84	   945
 3612.94	   946
 3613.04	   944
 3613.14	   947
 3613.24	   951
 3613.34	   951
 3613.44	   951
 3613.54	   953
 3613.64	   955
 3613.74	   957
 3613.84	   959
 3613.94	   959
 3614.04	   960
 3614.14	   960
 3614.24	   960
 3614.34	   960
 3614.44	   962
 3614.54	   964
 3614.64	   964
 3614.74	   963
 3614.84	   962
 3614.94	   962
 3615.05	   964
 3615.15	   965
 3615.25	   966
 3615.35	   967
 3615.45	   969
 3615.55	   970
 3615.65	   970
 3615.75	   969
 3615.85	   971
 3615.95	   973
 3616.05	   971
 3616.15	   968
 3616.25	   969
 3616.35	   972
 3616.45	   970
 3616.55	   968
 3616.65	   975
 3616.75	   979
 3616.85	   976
 3616.95	   977
 3617.05	   976
 3617.15	   974
 3617.25	   975
 3617.35	   976
 3617.45	   978
 3617.55	   979
 3617.65	   980
 3617.75	   981
 3617.85	   981
 3617.95	   980
 3618.05	   978
 3618.15	   977
 3618.25	   977
 3618.35	   978
 3618.45	   977
 3618.55	   979
 3618.65	   982
 3618.75	   984
 3618.85	   985
 3618.95	   987
 3619.05	   990
 3619.15	   991
 3619.25	   992
 3619.35	   994
 3619.45	   994
 3619.55	   993
 3619.65	   994
 3619.75	   995
 3619.85	   998
 3619.95	  1001
 3620.05	  1004
 3620.15	  1003
 3620.25	   999
 3620.35	  1002
 3620.45	  1009
 3620.55	  1005
 3620.65	  1003
 3620.75	  1006
 3620.85	  1006
 3620.95	  1005
 3621.05	  1006
 3621.15	  1007
 3621.25	  1009
 3621.35	  1009
 3621.45	  1009
 3621.55	  1009
 3621.65	  1009
 3621.75	  1011
 3621.85	  1011
 3621.95	  1011
 3622.05	  1010
 3622.15	  1010
 3622.25	  1010
 3622.35	  1009
 3622.45	  1008
 3622.55	  1007
 3622.65	  1008
 3622.75	  1009
