field,G intensity,a.u.
  3019.0	  3116
  3019.1	  3116
  3019.2	  3116
  3019.3	  3117
  3019.4	  3117
  3019.5	  3119
  3019.6	  3121
  3019.7	  3123
  3019.8	  3123
  3019.9	  3127
  3020.0	  3130
  3020.1	  3135
  3020.2	  3143
  3020.3	  3146
  3020.4	  3151
  3020.5	  3156
  3020.6	  3158
  3020.7	  3166
  3020.8	  3169
  3020.9	  3175
  3021.0	  3181
  3021.1	  3186
  3021.2	  3191
  3021.3	  3197
  3021.4	  3205
  3021.5	  3212
  3021.6	  3219
  3021.7	  3227
  3021.8	  3233
  3021.9	  3240
  3022.0	  3247
  3022.1	  3252
  3022.2	  3260
  3022.3	  3268
  3022.4	  3276
  3022.5	  3282
  3022.6	  3292
  3022.7	  3299
  3022.8	  3306
  3022.9	  3313
 3023.01	  3321
 3023.11	  3327
 3023.21	  3336
 3023.31	  3347
 3023.41	  3353
 3023.51	  3358
 3023.61	  3365
 3023.71	  3368
 3023.81	  3377
 3023.91	  3384
 3024.01	  3391
 3024.11	  3398
 3024.21	  3407
 3024.31	  3415
 3024.41	  3423
 3024.51	  3432
 3024.61	  3439
 3024.71	  3445
 3024.81	  3452
 3024.91	  3460
 3025.01	  3466
 3025.11	  3475
 3025.21	  3480
 3025.31	  3487
 3025.41	  3495
 3025.51	  3501
 3025.61	  3507
 3025.71	  3514
 3025.81	  3521
 3025.91	  3528
 3026.01	  3534
 3026.11	  3539
 3026.21	  3545
 3026.31	  3552
 3026.41	  3561
 3026.51	  3565
 3026.61	  3571
 3026.71	  3579
 3026.81	  3583
 3026.91	  3592
 3027.01	  3598
 3027.11	  3607
 3027.21	  3614
 3027.31	  3622
 3027.41	  3629
 3027.51	  3635
 3027.61	  3643
 3027.71	  3649
 3027.81	  3655
 3027.91	  3660
 3028.01	  3667
 3028.11	  3673
 3028.21	  3677
 3028.31	  3681
 3028.41	  3686
 3028.51	  3694
 3028.61	  3700
 3028.71	  3706
 3028.81	  3715
 3028.91	  3722
 3029.01	  3727
 3029.11	  3734
 3029.21	  3740
 3029.31	  3744
 3029.41	  3753
 3029.51	  3760
 3029.61	  3764
 3029.71	  3768
 3029.81	  3773
 3029.91	  3773
 3030.01	  3780
 3030.11	  3784
 3030.21	  3791
 3030.31	  3795
 3030.41	  3798
 3030.51	  3805
 3030.61	  3810
 3030.71	  3814
 3030.81	  3821
 3030.91	  3827
 3031.02	  3833
 3031.12	  3838
 3031.22	  3842
 3031.32	  3847
 3031.42	  3849
 3031.52	  3853
 3031.62	  3855
 3031.72	  3859
 3031.82	  3861
 3031.92	  3864
 3032.02	  3868
 3032.12	  3872
 3032.22	  3877
 3032.32	  3878
 3032.42	  3877
 3032.52	  3881
 3032.62	  3885
 3032.72	  3887
 3032.82	  3892
 3032.92	  3896
 3033.02	  3897
 3033.12	  3906
 3033.22	  3908
 3033.32	  3912
 3033.42	  3914
 3033.52	  3916
 3033.62	  3918
 3033.72	  3919
 3033.82	  3921
 3033.92	  3924
 3034.02	  3925
 3034.12	  3928
 3034.22	  3929
 3034.32	  3930
 3034.42	  3931
 3034.52	  3932
 3034.62	  3934
 3034.72	  3935
 3034.82	  3935
 3034.92	  3933
 3035.02	  3934
 3035.12	  3933
 3035.22	  3932
 3035.32	  3933
 3035.42	  3932
 3035.52	  3931
 3035.62	  3935
 3035.72	  3934
 3035.82	  3932
 3035.92	  3932
 3036.02	  3931
 3036.12	  3928
 3036.22	  3931
 3036.32	  3929
 3036.42	  3928
 3036.52	  3929
 3036.62	  3927
 3036.72	  3925
 3036.82	  3922
 3036.92	  3922
 3037.02	  3921
 3037.12	  3920
 3037.22	  3919
 3037.32	  3918
 3037.42	  3915
 3037.52	  3912
 3037.62	  3910
 3037.72	  3906
 3037.82	  3903
 3037.92	  3899
 3038.02	  3894
 3038.12	  3891
 3038.22	  3889
 3038.32	  3885
 3038.42	  3883
 3038.52	  3879
 3038.62	  3875
 3038.72	  3873
 3038.82	  3872
 3038.92	  3867
 3039.03	  3866
 3039.13	  3858
 3039.23	  3849
 3039.33	  3850
 3039.43	  3844
 3039.53	  3840
 3039.63	  3837
 3039.73	  3830
 3039.83	  3824
 3039.93	  3820
 3040.03	  3814
 3040.13	  3809
 3040.23	  3802
 3040.33	  3797
 3040.43	  3790
 3040.53	  3783
 3040.63	  3778
 3040.73	  3774
 3040.83	  3767
 3040.93	  3762
 3041.03	  3757
 3041.13	  3750
 3041.23	  3745
 3041.33	  3739
 3041.43	  3730
 3041.53	  3722
 3041.63	  3713
 3041.73	  3703
 3041.83	  3698
 3041.93	  3692
 3042.03	  3681
 3042.13	  3675
 3042.23	  3665
 3042.33	  3655
 3042.43	  3651
 3042.53	  3640
 3042.63	  3634
 3042.73	  3625
 3042.83	  3615
 3042.93	  3606
 3043.03	  3598
 3043.13	  3588
 3043.23	  3578
 3043.33	  3569
 3043.43	  3560
 3043.53	  3551
 3043.63	  3543
 3043.73	  3535
 3043.83	  3525
 3043.93	  3515
 3044.03	  3507
 3044.13	  3497
 3044.23	  3486
 3044.33	  3478
 3044.43	  3470
 3044.53	  3459
 3044.63	  3450
 3044.73	  3440
 3044.83	  3426
 3044.93	  3418
 3045.03	  3409
 3045.13	  3396
 3045.23	  3387
 3045.33	  3375
 3045.43	  3361
 3045.53	  3354
 3045.63	  3341
 3045.73	  3332
 3045.83	  3321
 3045.93	  3312
 3046.03	  3300
 3046.13	  3290
 3046.23	  3278
 3046.33	  3266
 3046.43	  3254
 3046.53	  3241
 3046.63	  3229
 3046.73	  3216
 3046.83	  3202
 3046.93	  3189
 3047.04	  3175
 3047.14	  3162
 3047.24	  3149
 3047.34	  3134
 3047.44	  3123
 3047.54	  3109
 3047.64	  3096
 3047.74	  3085
 3047.84	  3073
 3047.94	  3058
 3048.04	  3050
 3048.14	  3039
 3048.24	  3025
 3048.34	  3015
 3048.44	  3002
 3048.54	  2986
 3048.64	  2977
 3048.74	  2963
 3048.84	  2952
 3048.94	  2940
 3049.04	  2927
 3049.14	  2915
 3049.24	  2903
 3049.34	  2890
 3049.44	  2878
 3049.54	  2866
 3049.64	  2852
 3049.74	  2838
 3049.84	  2826
 3049.94	  2813
 3050.04	  2801
 3050.14	  2789
 3050.24	  2776
 3050.34	  2762
 3050.44	  2748
 3050.54	  2737
 3050.64	  2725
 3050.74	  2712
 3050.84	  2701
 3050.94	  2687
 3051.04	  2673
 3051.14	  2663
 3051.24	  2652
 3051.34	  2637
 3051.44	  2626
 3051.54	  2611
 3051.64	  2595
 3051.74	  2586
 3051.84	  2572
 3051.94	  2561
 3052.04	  2549
 3052.14	  2537
 3052.24	  2524
 3052.34	  2510
 3052.44	  2497
 3052.54	  2484
 3052.64	  2471
 3052.74	  2460
 3052.84	  2448
 3052.94	  2436
 3053.04	  2423
 3053.14	  2412
 3053.24	  2401
 3053.34	  2389
 3053.44	  2377
 3053.54	  2365
 3053.64	  2354
 3053.74	  2343
 3053.84	  2330
 3053.94	  2320
 3054.04	  2305
 3054.14	  2291
 3054.24	  2281
 3054.34	  2269
 3054.44	  2257
 3054.54	  2249
 3054.64	  2236
 3054.74	  2223
 3054.84	  2215
 3054.94	  2203
 3055.05	  2193
 3055.15	  2181
 3055.25	  2169
 3055.35	  2157
 3055.45	  2145
 3055.55	  2134
 3055.65	  2122
 3055.75	  2110
 3055.85	  2098
 3055.95	  2086
 3056.05	  2073
 3056.15	  2062
 3056.25	  2051
 3056.35	  2039
 3056.45	  2028
 3056.55	  2017
 3056.65	  2006
 3056.75	  1995
 3056.85	  1984
 3056.95	  1973
 3057.05	  1963
 3057.15	  1952
 3057.25	  1940
 3057.35	  1931
 3057.45	  1922
 3057.55	  1911
 3057.65	  1905
 3057.75	  1891
 3057.85	  1878
 3057.95	  1870
 3058.05	  1858
 3058.15	  1851
 3058.25	  1843
 3058.35	  1835
 3058.45	  1825
 3058.55	  1816
 3058.65	  1807
 3058.75	  1798
 3058.85	  1788
 3058.95	  1780
 3059.05	  1771
 3059.15	  1762
 3059.25	  1753
 3059.35	  1744
 3059.45	  1736
 3059.55	  1728
 3059.65	  1719
 3059.75	  1709
 3059.85	  1702
 3059.95	  1694
 3060.05	  1686
 3060.15	  1679
 3060.25	  1669
 3060.35	  1659
 3060.45	  1651
 3060.55	  1642
 3060.65	  1634
 3060.75	  1629
 3060.85	  1616
 3060.95	  1606
 3061.05	  1600
 3061.15	  1591
 3061.25	  1584
 3061.35	  1576
 3061.45	  1569
 3061.55	  1562
 3061.65	  1554
 3061.75	  1548
 3061.85	  1541
 3061.95	  1534
 3062.05	  1527
 3062.15	  1520
 3062.25	  1515
 3062.35	  1509
 3062.45	  1504
 3062.55	  1498
 3062.65	  1492
 3062.75	  1486
 3062.85	  1479
 3062.95	  1474
 3063.06	  1467
 3063.16	  1461
 3063.26	  1458
 3063.36	  1451
 3063.46	  1445
 3063.56	  1440
 3063.66	  1433
 3063.76	  1428
 3063.86	  1426
 3063.96	  1416
 3064.06	  1409
 3064.16	  1405
 3064.26	  1398
 3064.36	  1394
 3064.46	  1389
 3064.56	  1385
 3064.66	  1380
 3064.76	  1374
 3064.86	  1369
 3064.96	  1364
 3065.06	  1358
 3065.16	  1354
 3065.26	  1349
 3065.36	  1344
 3065.46	  1340
 3065.56	  1335
 3065.66	  1332
 3065.76	  1329
 3065.86	  1325
 3065.96	  1320
 3066.06	  1317
 3066.16	  1312
 3066.26	  1308
 3066.36	  1305
 3066.46	  1298
 3066.56	  1293
 3066.66	  1292
 3066.76	  1287
 3066.86	  1285
 3066.96	  1285
 3067.06	  1276
 3067.16	  1273
 3067.26	  1269
 3067.36	  1263
 3067.46	  1262
 3067.56	  1258
 3067.66	  1256
 3067.76	  1253
 3067.86	  1249
 3067.96	  1247
 3068.06	  1244
 3068.16	  1241
 3068.26	  1238
 3068.36	  1235
 3068.46	  1232
 3068.56	  1229
 3068.66	  1226
 3068.76	  1225
 3068.86	  1224
 3068.96	  1221
 3069.06	  1218
 3069.16	  1217
 3069.26	  1214
 3069.36	  1212
 3069.46	  1213
 3069.56	  1209
 3069.66	  1205
 3069.76	  1205
 3069.86	  1201
 3069.96	  1200
 3070.06	  1202
 3070.16	  1194
 3070.26	  1191
 3070.36	  1189
 3070.46	  1185
 3070.56	  1185
 3070.66	  1182
 3070.76	  1180
 3070.86	  1179
 3070.96	  1177
 3071.07	  1176
 3071.17	  1175
 3071.27	  1173
 3071.37	  1172
 3071.47	  1171
 3071.57	  1170
 3071.67	  1168
 3071.77	  1167
 3071.87	  1166
 3071.97	  1166
 3072.07	  1164
 3072.17	  1162
 3072.27	  1163
 3072.37	  1161
 3072.47	  1161
 3072.57	  1162
 3072.67	  1160
 3072.77	  1158
 3072.87	  1160
 3072.97	  1159
 3073.07	  1162
 3073.17	  1167
 3073.27	  1160
 3073.37	  1160
 3073.47	  1158
 3073.57	  1155
 3073.67	  1156
 3073.77	  1154
 3073.87	  1153
 3073.97	  1153
 3074.07	  1152
 3074.17	  1152
 3074.27	  1152
 3074.37	  1152
 3074.47	  1152
 3074.57	  1151
 3074.67	  1151
 3074.77	  1152
 3074.87	  1152
 3074.97	  1151
 3075.07	  1151
 3075.17	  1149
 3075.27	  1148
 3075.37	  1149
 3075.47	  1148
 3075.57	  1149
 3075.67	  1152
 3075.77	  1150
 3075.87	  1150
 3075.97	  1153
 3076.07	  1150
 3076.17	  1151
 3076.27	  1155
 3076.37	  1149
 3076.47	  1150
 3076.57	  1150
 3076.67	  1148
 3076.77	  1150
 3076.87	  1150
 3076.97	  1151
 3077.07	  1152
 3077.17	  1154
 3077.27	  1155
 3077.37	  1155
 3077.47	  1155
 3077.57	  1156
 3077.67	  1157
 3077.77	  1158
 3077.87	  1158
 3077.97	  1159
 3078.07	  1159
 3078.17	  1160
 3078.27	  1159
 3078.37	  1158
 3078.47	  1160
 3078.57	  1160
 3078.67	  1161
 3078.77	  1165
 3078.87	  1163
 3078.97	  1163
 3079.08	  1165
 3079.18	  1164
 3079.28	  1167
 3079.38	  1175
 3079.48	  1171
 3079.58	  1173
 3079.68	  1173
 3079.78	  1173
 3079.88	  1176
 3079.98	  1178
 3080.08	  1180
 3080.18	  1181
 3080.28	  1183
 3080.38	  1184
 3080.48	  1186
 3080.58	  1187
 3080.68	  1189
 3080.78	  1189
 3080.88	  1190
 3080.98	  1191
 3081.08	  1193
 3081.18	  1193
 3081.28	  1195
 3081.38	  1196
 3081.48	  1196
 3081.58	  1198
 3081.68	  1198
 3081.78	  1201
 3081.88	  1205
 3081.98	  1204
 3082.08	  1205
 3082.18	  1208
 3082.28	  1207
 3082.38	  1212
 3082.48	  1218
 3082.58	  1215
 3082.68	  1218
 3082.78	  1218
 3082.88	  1219
 3082.98	  1220
 3083.08	  1222
 3083.18	  1224
 3083.28	  1227
 3083.38	  1229
 3083.48	  1231
 3083.58	  1232
 3083.68	  1234
 3083.78	  1236
 3083.88	  1237
 3083.98	  1239
 3084.08	  1240
 3084.18	  1242
 3084.28	  1245
 3084.38	  1249
 3084.48	  1251
 3084.58	  1252
 3084.68	  1254
 3084.78	  1254
 3084.88	  1256
 3084.98	  1260
 3085.08	  1260
 3085.18	  1261
 3085.28	  1263
 3085.38	  1262
 3085.48	  1267
 3085.58	  1273
 3085.68	  1271
 3085.78	  1275
 3085.88	  1274
 3085.98	  1275
 3086.08	  1278
 3086.18	  1281
 3086.28	  1283
 3086.38	  1284
 3086.48	  1287
 3086.58	  1289
 3086.68	  1291
 3086.78	  1294
 3086.88	  1296
 3086.98	  1299
 3087.09	  1302
 3087.19	  1304
 3087.29	  1306
 3087.39	  1307
 3087.49	  1310
 3087.59	  1312
 3087.69	  1315
 3087.79	  1319
 3087.89	  1320
 3087.99	  1324
 3088.09	  1328
 3088.19	  1328
 3088.29	  1329
 3088.39	  1332
 3088.49	  1331
 3088.59	  1337
 3088.69	  1344
 3088.79	  1342
 3088.89	  1347
 3088.99	  1347
 3089.09	  1348
 3089.19	  1351
 3089.29	  1354
 3089.39	  1355
 3089.49	  1358
 3089.59	  1361
 3089.69	  1364
 3089.79	  1367
 3089.89	  1371
 3089.99	  1373
 3090.09	  1376
 3090.19	  1379
 3090.29	  1381
 3090.39	  1384
 3090.49	  1389
 3090.59	  1394
 3090.69	  1397
 3090.79	  1400
 3090.89	  1402
 3090.99	  1403
 3091.09	  1406
 3091.19	  1410
 3091.29	  1411
 3091.39	  1414
 3091.49	  1417
 3091.59	  1417
 3091.69	  1424
 3091.79	  1431
 3091.89	  1431
 3091.99	  1437
 3092.09	  1438
 3092.19	  1441
 3092.29	  1445
 3092.39	  1448
 3092.49	  1451
 3092.59	  1454
 3092.69	  1457
 3092.79	  1459
 3092.89	  1461
 3092.99	  1463
 3093.09	  1465
 3093.19	  1467
 3093.29	  1471
 3093.39	  1473
 3093.49	  1476
 3093.59	  1480
 3093.69	  1485
 3093.79	  1489
 3093.89	  1494
 3093.99	  1497
 3094.09	  1499
 3094.19	  1504
 3094.29	  1509
 3094.39	  1511
 3094.49	  1515
 3094.59	  1518
 3094.69	  1518
 3094.79	  1525
 3094.89	  1530
 3094.99	  1531
  3095.1	  1537
  3095.2	  1538
  3095.3	  1542
  3095.4	  1545
  3095.5	  1549
  3095.6	  1553
  3095.7	  1556
  3095.8	  1559
  3095.9	  1563
  3096.0	  1567
  3096.1	  1571
  3096.2	  1575
  3096.3	  1579
  3096.4	  1582
  3096.5	  1585
  3096.6	  1587
  3096.7	  1591
  3096.8	  1594
  3096.9	  1597
  3097.0	  1602
  3097.1	  1605
  3097.2	  1607
  3097.3	  1613
  3097.4	  1618
  3097.5	  1622
  3097.6	  1627
  3097.7	  1631
  3097.8	  1632
  3097.9	  1640
  3098.0	  1646
  3098.1	  1648
  3098.2	  1655
  3098.3	  1657
  3098.4	  1663
  3098.5	  1666
  3098.6	  1670
  3098.7	  1675
  3098.8	  1679
  3098.9	  1683
  3099.0	  1687
  3099.1	  1691
  3099.2	  1695
  3099.3	  1700
  3099.4	  1703
  3099.5	  1707
  3099.6	  1711
  3099.7	  1714
  3099.8	  1718
  3099.9	  1723
  3100.0	  1727
  3100.1	  1733
  3100.2	  1737
  3100.3	  1740
  3100.4	  1746
  3100.5	  1751
  3100.6	  1754
  3100.7	  1760
  3100.8	  1763
  3100.9	  1763
  3101.0	  1772
  3101.1	  1778
  3101.2	  1783
  3101.3	  1792
  3101.4	  1794
  3101.5	  1798
  3101.6	  1802
  3101.7	  1808
  3101.8	  1811
  3101.9	  1816
  3102.0	  1820
  3102.1	  1825
  3102.2	  1829
  3102.3	  1834
  3102.4	  1839
  3102.5	  1843
  3102.6	  1847
  3102.7	  1852
  3102.8	  1855
  3102.9	  1861
 3103.01	  1865
 3103.11	  1870
 3103.21	  1876
 3103.31	  1881
 3103.41	  1885
 3103.51	  1891
 3103.61	  1898
 3103.71	  1903
 3103.81	  1911
 3103.91	  1913
 3104.01	  1914
 3104.11	  1924
 3104.21	  1929
 3104.31	  1935
 3104.41	  1942
 3104.51	  1945
 3104.61	  1952
 3104.71	  1958
 3104.81	  1964
 3104.91	  1969
 3105.01	  1974
 3105.11	  1979
 3105.21	  1984
 3105.31	  1990
 3105.41	  1997
 3105.51	  2004
 3105.61	  2009
 3105.71	  2016
 3105.81	  2023
 3105.91	  2030
 3106.01	  2036
 3106.11	  2042
 3106.21	  2048
 3106.31	  2055
 3106.41	  2061
 3106.51	  2066
 3106.61	  2073
 3106.71	  2079
 3106.81	  2085
 3106.91	  2094
 3107.01	  2098
 3107.11	  2100
 3107.21	  2110
 3107.31	  2115
 3107.41	  2121
 3107.51	  2130
 3107.61	  2132
 3107.71	  2139
 3107.81	  2145
 3107.91	  2151
 3108.01	  2157
 3108.11	  2164
 3108.21	  2172
 3108.31	  2180
 3108.41	  2187
 3108.51	  2194
 3108.61	  2200
 3108.71	  2208
 3108.81	  2215
 3108.91	  2223
 3109.01	  2230
 3109.11	  2237
 3109.21	  2244
 3109.31	  2250
 3109.41	  2257
 3109.51	  2262
 3109.61	  2267
 3109.71	  2275
 3109.81	  2281
 3109.91	  2287
 3110.01	  2295
 3110.11	  2300
 3110.21	  2304
 3110.31	  2314
 3110.41	  2320
 3110.51	  2329
 3110.61	  2337
 3110.71	  2342
 3110.81	  2349
 3110.91	  2357
 3111.02	  2364
 3111.12	  2372
 3111.22	  2380
 3111.32	  2386
 3111.42	  2393
 3111.52	  2401
 3111.62	  2409
 3111.72	  2416
 3111.82	  2425
 3111.92	  2433
 3112.02	  2442
 3112.12	  2450
 3112.22	  2458
 3112.32	  2465
 3112.42	  2474
 3112.52	  2483
 3112.62	  2491
 3112.72	  2497
 3112.82	  2507
 3112.92	  2515
 3113.02	  2523
 3113.12	  2533
 3113.22	  2539
 3113.32	  2543
 3113.42	  2554
 3113.52	  2559
 3113.62	  2569
 3113.72	  2579
 3113.82	  2586
 3113.92	  2594
 3114.02	  2603
 3114.12	  2611
 3114.22	  2619
 3114.32	  2628
 3114.42	  2635
 3114.52	  2643
 3114.62	  2650
 3114.72	  2658
 3114.82	  2665
 3114.92	  2673
 3115.02	  2681
 3115.12	  2688
 3115.22	  2697
 3115.32	  2705
 3115.42	  2713
 3115.52	  2721
 3115.62	  2730
 3115.72	  2738
 3115.82	  2747
 3115.92	  2756
 3116.02	  2765
 3116.12	  2773
 3116.22	  2783
 3116.32	  2790
 3116.42	  2797
 3116.52	  2808
 3116.62	  2814
 3116.72	  2826
 3116.82	  2836
 3116.92	  2845
 3117.02	  2854
 3117.12	  2863
 3117.22	  2872
 3117.32	  2881
 3117.42	  2889
 3117.52	  2898
 3117.62	  2906
 3117.72	  2915
 3117.82	  2924
 3117.92	  2934
 3118.02	  2944
 3118.12	  2952
 3118.22	  2960
 3118.32	  2969
 3118.42	  2978
 3118.52	  2986
 3118.62	  2995
 3118.72	  3004
 3118.82	  3011
 3118.92	  3019
 3119.03	  3026
 3119.13	  3034
 3119.23	  3044
 3119.33	  3055
 3119.43	  3064
 3119.53	  3072
 3119.63	  3082
 3119.73	  3088
 3119.83	  3100
 3119.93	  3109
 3120.03	  3119
 3120.13	  3127
 3120.23	  3135
 3120.33	  3144
 3120.43	  3152
 3120.53	  3161
 3120.63	  3171
 3120.73	  3179
 3120.83	  3188
 3120.93	  3196
 3121.03	  3204
 3121.13	  3212
 3121.23	  3221
 3121.33	  3230
 3121.43	  3240
 3121.53	  3247
 3121.63	  3256
 3121.73	  3268
 3121.83	  3277
 3121.93	  3285
 3122.03	  3295
 3122.13	  3304
 3122.23	  3312
 3122.33	  3322
 3122.43	  3333
 3122.53	  3339
 3122.63	  3347
 3122.73	  3355
 3122.83	  3361
 3122.93	  3374
 3123.03	  3382
 3123.13	  3392
 3123.23	  3398
 3123.33	  3406
 3123.43	  3414
 3123.53	  3420
 3123.63	  3426
 3123.73	  3433
 3123.83	  3440
 3123.93	  3447
 3124.03	  3454
 3124.13	  3460
 3124.23	  3466
 3124.33	  3472
 3124.43	  3479
 3124.53	  3485
 3124.63	  3493
 3124.73	  3499
 3124.83	  3509
 3124.93	  3515
 3125.03	  3522
 3125.13	  3531
 3125.23	  3537
 3125.33	  3543
 3125.43	  3552
 3125.53	  3561
 3125.63	  3565
 3125.73	  3572
 3125.83	  3578
 3125.93	  3580
 3126.03	  3588
 3126.13	  3593
 3126.23	  3600
 3126.33	  3607
 3126.43	  3614
 3126.53	  3622
 3126.63	  3627
 3126.73	  3634
 3126.83	  3643
 3126.93	  3649
 3127.04	  3656
 3127.14	  3663
 3127.24	  3667
 3127.34	  3675
 3127.44	  3680
 3127.54	  3685
 3127.64	  3689
 3127.74	  3693
 3127.84	  3695
 3127.94	  3700
 3128.04	  3705
 3128.14	  3709
 3128.24	  3715
 3128.34	  3716
 3128.44	  3719
 3128.54	  3726
 3128.64	  3731
 3128.74	  3733
 3128.84	  3738
 3128.94	  3740
 3129.04	  3739
 3129.14	  3747
 3129.24	  3748
 3129.34	  3753
 3129.44	  3756
 3129.54	  3759
 3129.64	  3761
 3129.74	  3763
 3129.84	  3767
 3129.94	  3771
 3130.04	  3772
 3130.14	  3774
 3130.24	  3779
 3130.34	  3779
 3130.44	  3782
 3130.54	  3785
 3130.64	  3786
 3130.74	  3787
 3130.84	  3790
 3130.94	  3790
 3131.04	  3792
 3131.14	  3792
 3131.24	  3791
 3131.34	  3792
 3131.44	  3793
 3131.54	  3792
 3131.64	  3793
 3131.74	  3794
 3131.84	  3792
 3131.94	  3793
 3132.04	  3789
 3132.14	  3785
 3132.24	  3787
 3132.34	  3785
 3132.44	  3786
 3132.54	  3785
 3132.64	  3786
 3132.74	  3785
 3132.84	  3783
 3132.94	  3782
 3133.04	  3783
 3133.14	  3782
 3133.24	  3783
 3133.34	  3781
 3133.44	  3779
 3133.54	  3777
 3133.64	  3776
 3133.74	  3772
 3133.84	  3771
 3133.94	  3769
 3134.04	  3763
 3134.14	  3761
 3134.24	  3758
 3134.34	  3753
 3134.44	  3749
 3134.54	  3744
 3134.64	  3736
 3134.74	  3733
 3134.84	  3728
 3134.94	  3722
 3135.05	  3719
 3135.15	  3713
 3135.25	  3705
 3135.35	  3703
 3135.45	  3694
 3135.55	  3692
 3135.65	  3687
 3135.75	  3680
 3135.85	  3674
 3135.95	  3668
 3136.05	  3661
 3136.15	  3655
 3136.25	  3649
 3136.35	  3642
 3136.45	  3635
 3136.55	  3627
 3136.65	  3621
 3136.75	  3613
 3136.85	  3607
 3136.95	  3599
 3137.05	  3593
 3137.15	  3583
 3137.25	  3577
 3137.35	  3571
 3137.45	  3562
 3137.55	  3556
 3137.65	  3547
 3137.75	  3537
 3137.85	  3531
 3137.95	  3523
 3138.05	  3513
 3138.15	  3507
 3138.25	  3495
 3138.35	  3484
 3138.45	  3477
 3138.55	  3466
 3138.65	  3460
 3138.75	  3453
 3138.85	  3443
 3138.95	  3433
 3139.05	  3423
 3139.15	  3413
 3139.25	  3404
 3139.35	  3393
 3139.45	  3382
 3139.55	  3370
 3139.65	  3359
 3139.75	  3349
 3139.85	  3338
 3139.95	  3326
 3140.05	  3315
 3140.15	  3303
 3140.25	  3290
 3140.35	  3280
 3140.45	  3269
 3140.55	  3256
 3140.65	  3245
 3140.75	  3232
 3140.85	  3217
 3140.95	  3208
 3141.05	  3196
 3141.15	  3183
 3141.25	  3174
 3141.35	  3159
 3141.45	  3144
 3141.55	  3135
 3141.65	  3122
 3141.75	  3112
 3141.85	  3101
 3141.95	  3090
 3142.05	  3078
 3142.15	  3066
 3142.25	  3053
 3142.35	  3042
 3142.45	  3029
 3142.55	  3016
 3142.65	  3003
 3142.75	  2991
 3142.85	  2978
 3142.95	  2965
 3143.06	  2954
 3143.16	  2941
 3143.26	  2927
 3143.36	  2912
 3143.46	  2899
 3143.56	  2883
 3143.66	  2870
 3143.76	  2858
 3143.86	  2843
 3143.96	  2827
 3144.06	  2815
 3144.16	  2802
 3144.26	  2787
 3144.36	  2777
 3144.46	  2758
 3144.56	  2743
 3144.66	  2730
 3144.76	  2715
 3144.86	  2703
 3144.96	  2689
 3145.06	  2676
 3145.16	  2662
 3145.26	  2648
 3145.36	  2634
 3145.46	  2621
 3145.56	  2606
 3145.66	  2593
 3145.76	  2578
 3145.86	  2565
 3145.96	  2550
 3146.06	  2537
 3146.16	  2523
 3146.26	  2509
 3146.36	  2495
 3146.46	  2480
 3146.56	  2467
 3146.66	  2452
 3146.76	  2440
 3146.86	  2429
 3146.96	  2414
 3147.06	  2400
 3147.16	  2388
 3147.26	  2374
 3147.36	  2361
 3147.46	  2353
 3147.56	  2335
 3147.66	  2320
 3147.76	  2307
 3147.86	  2292
 3147.96	  2280
 3148.06	  2266
 3148.16	  2253
 3148.26	  2239
 3148.36	  2225
 3148.46	  2213
 3148.56	  2201
 3148.66	  2188
 3148.76	  2174
 3148.86	  2161
 3148.96	  2147
 3149.06	  2135
 3149.16	  2122
 3149.26	  2111
 3149.36	  2098
 3149.46	  2086
 3149.56	  2073
 3149.66	  2061
 3149.76	  2047
 3149.86	  2035
 3149.96	  2025
 3150.06	  2011
 3150.16	  1997
 3150.26	  1986
 3150.36	  1973
 3150.46	  1963
 3150.56	  1957
 3150.66	  1941
 3150.76	  1930
 3150.86	  1918
 3150.96	  1905
 3151.07	  1895
 3151.17	  1884
 3151.27	  1874
 3151.37	  1862
 3151.47	  1852
 3151.57	  1842
 3151.67	  1831
 3151.77	  1821
 3151.87	  1812
 3151.97	  1801
 3152.07	  1792
 3152.17	  1782
 3152.27	  1772
 3152.37	  1761
 3152.47	  1751
 3152.57	  1739
 3152.67	  1728
 3152.77	  1718
 3152.87	  1707
 3152.97	  1698
 3153.07	  1689
 3153.17	  1677
 3153.27	  1666
 3153.37	  1657
 3153.47	  1645
 3153.57	  1637
 3153.67	  1632
 3153.77	  1617
 3153.87	  1609
 3153.97	  1599
 3154.07	  1589
 3154.17	  1580
 3154.27	  1571
 3154.37	  1561
 3154.47	  1550
 3154.57	  1540
 3154.67	  1532
 3154.77	  1522
 3154.87	  1514
 3154.97	  1506
 3155.07	  1497
 3155.17	  1489
 3155.27	  1481
 3155.37	  1474
 3155.47	  1466
 3155.57	  1460
 3155.67	  1452
 3155.77	  1443
 3155.87	  1437
 3155.97	  1427
 3156.07	  1422
 3156.17	  1417
 3156.27	  1408
 3156.37	  1401
 3156.47	  1395
 3156.57	  1385
 3156.67	  1381
 3156.77	  1378
 3156.87	  1366
 3156.97	  1361
 3157.07	  1352
 3157.17	  1344
 3157.27	  1338
 3157.37	  1332
 3157.47	  1326
 3157.57	  1319
 3157.67	  1312
 3157.77	  1306
 3157.87	  1299
 3157.97	  1292
 3158.07	  1287
 3158.17	  1280
 3158.27	  1275
 3158.37	  1269
 3158.47	  1262
 3158.57	  1255
 3158.67	  1250
 3158.77	  1243
 3158.87	  1237
 3158.97	  1232
 3159.08	  1225
 3159.18	  1221
 3159.28	  1217
 3159.38	  1210
 3159.48	  1205
 3159.58	  1201
 3159.68	  1194
 3159.78	  1193
 3159.88	  1192
 3159.98	  1185
 3160.08	  1185
 3160.18	  1178
 3160.28	  1173
 3160.38	  1169
 3160.48	  1165
 3160.58	  1159
 3160.68	  1154
 3160.78	  1148
 3160.88	  1144
 3160.98	  1140
 3161.08	  1137
 3161.18	  1134
 3161.28	  1131
 3161.38	  1128
 3161.48	  1124
 3161.58	  1119
 3161.68	  1115
 3161.78	  1113
 3161.88	  1108
 3161.98	  1105
 3162.08	  1102
 3162.18	  1097
 3162.28	  1095
 3162.38	  1094
 3162.48	  1089
 3162.58	  1087
 3162.68	  1085
 3162.78	  1078
 3162.88	  1078
 3162.98	  1078
 3163.08	  1072
 3163.18	  1071
 3163.28	  1066
 3163.38	  1063
 3163.48	  1060
 3163.58	  1057
 3163.68	  1055
 3163.78	  1053
 3163.88	  1050
 3163.98	  1048
 3164.08	  1046
 3164.18	  1043
 3164.28	  1041
 3164.38	  1039
 3164.48	  1037
 3164.58	  1035
 3164.68	  1034
 3164.78	  1032
 3164.88	  1031
 3164.98	  1029
 3165.08	  1027
 3165.18	  1026
 3165.28	  1022
 3165.38	  1024
 3165.48	  1025
 3165.58	  1021
 3165.68	  1019
 3165.78	  1016
 3165.88	  1010
 3165.98	  1012
 3166.08	  1013
 3166.18	  1009
 3166.28	  1012
 3166.38	  1009
 3166.48	  1008
 3166.58	  1006
 3166.68	  1005
 3166.78	  1004
 3166.88	  1004
 3166.98	  1003
 3167.09	  1002
 3167.19	  1001
 3167.29	   999
 3167.39	   997
 3167.49	   996
 3167.59	   995
 3167.69	   995
 3167.79	   995
 3167.89	   994
 3167.99	   993
 3168.09	   992
 3168.19	   992
 3168.29	   992
 3168.39	   990
 3168.49	   992
 3168.59	   994
 3168.69	   990
 3168.79	   989
 3168.89	   988
 3168.99	   983
 3169.09	   987
 3169.19	   989
 3169.29	   987
 3169.39	   990
 3169.49	   988
 3169.59	   988
 3169.69	   987
 3169.79	   988
 3169.89	   988
 3169.99	   989
 3170.09	   989
 3170.19	   988
 3170.29	   990
 3170.39	   990
 3170.49	   991
 3170.59	   992
 3170.69	   992
 3170.79	   993
 3170.89	   994
 3170.99	   995
 3171.09	   997
 3171.19	   998
 3171.29	   999
 3171.39	  1000
 3171.49	   998
 3171.59	   999
 3171.69	   999
 3171.79	   998
 3171.89	   999
 3171.99	   998
 3172.09	   994
 3172.19	   998
 3172.29	   999
 3172.39	   999
 3172.49	  1004
 3172.59	  1004
 3172.69	  1005
 3172.79	  1006
 3172.89	  1007
 3172.99	  1007
 3173.09	  1007
 3173.19	  1008
 3173.29	  1008
 3173.39	  1009
 3173.49	  1010
 3173.59	  1010
 3173.69	  1011
 3173.79	  1013
 3173.89	  1014
 3173.99	  1017
 3174.09	  1017
 3174.19	  1019
 3174.29	  1020
 3174.39	  1021
 3174.49	  1021
 3174.59	  1021
 3174.69	  1025
 3174.79	  1026
 3174.89	  1026
 3174.99	  1028
  3175.1	  1027
  3175.2	  1025
  3175.3	  1029
  3175.4	  1031
  3175.5	  1032
  3175.6	  1036
  3175.7	  1035
  3175.8	  1036
  3175.9	  1036
  3176.0	  1038
  3176.1	  1038
  3176.2	  1039
  3176.3	  1041
  3176.4	  1042
  3176.5	  1043
  3176.6	  1045
  3176.7	  1047
  3176.8	  1050
  3176.9	  1052
  3177.0	  1054
  3177.1	  1056
  3177.2	  1056
  3177.3	  1057
  3177.4	  1060
  3177.5	  1063
  3177.6	  1064
  3177.7	  1066
  3177.8	  1069
  3177.9	  1070
  3178.0	  1071
  3178.1	  1075
  3178.2	  1075
  3178.3	  1073
  3178.4	  1077
  3178.5	  1078
  3178.6	  1082
  3178.7	  1086
  3178.8	  1087
  3178.9	  1089
  3179.0	  1092
  3179.1	  1095
  3179.2	  1095
  3179.3	  1096
  3179.4	  1097
  3179.5	  1099
  3179.6	  1100
  3179.7	  1101
  3179.8	  1102
  3179.9	  1105
  3180.0	  1106
  3180.1	  1108
  3180.2	  1110
  3180.3	  1112
  3180.4	  1115
  3180.5	  1118
  3180.6	  1121
  3180.7	  1123
  3180.8	  1124
  3180.9	  1126
  3181.0	  1128
  3181.1	  1133
  3181.2	  1137
  3181.3	  1137
  3181.4	  1138
  3181.5	  1142
  3181.6	  1140
  3181.7	  1144
  3181.8	  1145
  3181.9	  1147
  3182.0	  1148
  3182.1	  1151
  3182.2	  1154
  3182.3	  1156
  3182.4	  1158
  3182.5	  1161
  3182.6	  1163
  3182.7	  1165
  3182.8	  1167
  3182.9	  1168
 3183.01	  1170
 3183.11	  1171
 3183.21	  1173
 3183.31	  1175
 3183.41	  1178
 3183.51	  1179
 3183.61	  1183
 3183.71	  1186
 3183.81	  1187
 3183.91	  1189
 3184.01	  1192
 3184.11	  1194
 3184.21	  1199
 3184.31	  1204
 3184.41	  1204
 3184.51	  1206
 3184.61	  1210
 3184.71	  1209
 3184.81	  1216
 3184.91	  1218
 3185.01	  1219
 3185.11	  1220
 3185.21	  1223
 3185.31	  1225
 3185.41	  1227
 3185.51	  1230
 3185.61	  1232
 3185.71	  1234
 3185.81	  1237
 3185.91	  1241
 3186.01	  1243
 3186.11	  1246
 3186.21	  1249
 3186.31	  1251
 3186.41	  1253
 3186.51	  1256
 3186.61	  1258
 3186.71	  1262
 3186.81	  1266
 3186.91	  1268
 3187.01	  1271
 3187.11	  1275
 3187.21	  1277
 3187.31	  1282
 3187.41	  1287
 3187.51	  1287
 3187.61	  1290
 3187.71	  1292
 3187.81	  1291
 3187.91	  1298
 3188.01	  1300
 3188.11	  1304
 3188.21	  1309
 3188.31	  1311
 3188.41	  1314
 3188.51	  1317
 3188.61	  1320
 3188.71	  1323
 3188.81	  1326
 3188.91	  1329
 3189.01	  1331
 3189.11	  1334
 3189.21	  1337
 3189.31	  1339
 3189.41	  1343
 3189.51	  1346
 3189.61	  1350
 3189.71	  1352
 3189.81	  1357
 3189.91	  1360
 3190.01	  1363
 3190.11	  1366
 3190.21	  1368
 3190.31	  1368
 3190.41	  1373
 3190.51	  1377
 3190.61	  1378
 3190.71	  1382
 3190.81	  1384
 3190.91	  1384
 3191.02	  1390
 3191.12	  1391
 3191.22	  1395
 3191.32	  1397
 3191.42	  1401
 3191.52	  1404
 3191.62	  1408
 3191.72	  1412
 3191.82	  1416
 3191.92	  1420
 3192.02	  1423
 3192.12	  1425
 3192.22	  1427
 3192.32	  1430
 3192.42	  1434
 3192.52	  1438
 3192.62	  1443
 3192.72	  1446
 3192.82	  1449
 3192.92	  1454
 3193.02	  1459
 3193.12	  1462
 3193.22	  1467
 3193.32	  1471
 3193.42	  1473
 3193.52	  1479
 3193.62	  1484
 3193.72	  1487
 3193.82	  1494
 3193.92	  1494
 3194.02	  1495
 3194.12	  1501
 3194.22	  1504
 3194.32	  1509
 3194.42	  1513
 3194.52	  1516
 3194.62	  1520
 3194.72	  1524
 3194.82	  1527
 3194.92	  1531
 3195.02	  1536
 3195.12	  1539
 3195.22	  1544
 3195.32	  1549
 3195.42	  1553
 3195.52	  1558
 3195.62	  1562
 3195.72	  1567
 3195.82	  1570
 3195.92	  1573
 3196.02	  1577
 3196.12	  1582
 3196.22	  1586
 3196.32	  1591
 3196.42	  1593
 3196.52	  1594
 3196.62	  1600
 3196.72	  1605
 3196.82	  1608
 3196.92	  1616
 3197.02	  1617
 3197.12	  1620
 3197.22	  1625
 3197.32	  1627
 3197.42	  1633
 3197.52	  1636
 3197.62	  1640
 3197.72	  1645
 3197.82	  1649
 3197.92	  1654
 3198.02	  1659
 3198.12	  1664
 3198.22	  1669
 3198.32	  1673
 3198.42	  1678
 3198.52	  1683
 3198.62	  1688
 3198.72	  1692
 3198.82	  1697
 3198.92	  1702
 3199.03	  1706
 3199.13	  1712
 3199.23	  1716
 3199.33	  1721
 3199.43	  1727
 3199.53	  1731
 3199.63	  1734
 3199.73	  1740
 3199.83	  1743
 3199.93	  1749
 3200.03	  1760
 3200.13	  1761
 3200.23	  1764
 3200.33	  1771
 3200.43	  1775
 3200.53	  1781
 3200.63	  1787
 3200.73	  1793
 3200.83	  1798
 3200.93	  1803
 3201.03	  1809
 3201.13	  1814
 3201.23	  1819
 3201.33	  1825
 3201.43	  1829
 3201.53	  1835
 3201.63	  1840
 3201.73	  1844
 3201.83	  1849
 3201.93	  1855
 3202.03	  1860
 3202.13	  1865
 3202.23	  1871
 3202.33	  1876
 3202.43	  1883
 3202.53	  1890
 3202.63	  1894
 3202.73	  1899
 3202.83	  1906
 3202.93	  1910
 3203.03	  1918
 3203.13	  1930
 3203.23	  1931
 3203.33	  1938
 3203.43	  1943
 3203.53	  1949
 3203.63	  1956
 3203.73	  1961
 3203.83	  1967
 3203.93	  1971
 3204.03	  1976
 3204.13	  1983
 3204.23	  1988
 3204.33	  1993
 3204.43	  1999
 3204.53	  2003
 3204.63	  2009
 3204.73	  2015
 3204.83	  2022
 3204.93	  2028
 3205.03	  2035
 3205.13	  2041
 3205.23	  2048
 3205.33	  2055
 3205.43	  2060
 3205.53	  2068
 3205.63	  2077
 3205.73	  2081
 3205.83	  2088
 3205.93	  2096
 3206.03	  2101
 3206.13	  2111
 3206.23	  2123
 3206.33	  2125
 3206.43	  2134
 3206.53	  2140
 3206.63	  2146
 3206.73	  2154
 3206.83	  2161
 3206.93	  2169
 3207.04	  2174
 3207.14	  2180
 3207.24	  2188
 3207.34	  2194
 3207.44	  2201
 3207.54	  2209
 3207.64	  2217
 3207.74	  2225
 3207.84	  2233
 3207.94	  2241
 3208.04	  2248
 3208.14	  2257
 3208.24	  2263
 3208.34	  2270
 3208.44	  2277
 3208.54	  2282
 3208.64	  2291
 3208.74	  2301
 3208.84	  2307
 3208.94	  2315
 3209.04	  2322
 3209.14	  2326
 3209.24	  2338
 3209.34	  2351
 3209.44	  2354
 3209.54	  2365
 3209.64	  2371
 3209.74	  2378
 3209.84	  2388
 3209.94	  2396
 3210.04	  2404
 3210.14	  2411
 3210.24	  2420
 3210.34	  2428
 3210.44	  2436
 3210.54	  2445
 3210.64	  2454
 3210.74	  2461
 3210.84	  2470
 3210.94	  2479
 3211.04	  2487
 3211.14	  2494
 3211.24	  2504
 3211.34	  2511
 3211.44	  2518
 3211.54	  2526
 3211.64	  2532
 3211.74	  2543
 3211.84	  2553
 3211.94	  2561
 3212.04	  2569
 3212.14	  2577
 3212.24	  2582
 3212.34	  2595
 3212.44	  2605
 3212.54	  2610
 3212.64	  2622
 3212.74	  2628
 3212.84	  2638
 3212.94	  2646
 3213.04	  2655
 3213.14	  2664
 3213.24	  2673
 3213.34	  2682
 3213.44	  2691
 3213.54	  2701
 3213.64	  2710
 3213.74	  2719
 3213.84	  2728
 3213.94	  2738
 3214.04	  2748
 3214.14	  2756
 3214.24	  2764
 3214.34	  2774
 3214.44	  2782
 3214.54	  2792
 3214.64	  2801
 3214.74	  2809
 3214.84	  2820
 3214.94	  2832
 3215.05	  2841
 3215.15	  2851
 3215.25	  2860
 3215.35	  2867
 3215.45	  2880
 3215.55	  2891
 3215.65	  2899
 3215.75	  2912
 3215.85	  2918
 3215.95	  2927
 3216.05	  2937
 3216.15	  2946
 3216.25	  2956
 3216.35	  2965
 3216.45	  2974
 3216.55	  2983
 3216.65	  2991
 3216.75	  3000
 3216.85	  3008
 3216.95	  3018
 3217.05	  3028
 3217.15	  3036
 3217.25	  3046
 3217.35	  3056
 3217.45	  3066
 3217.55	  3077
 3217.65	  3088
 3217.75	  3098
 3217.85	  3105
 3217.95	  3116
 3218.05	  3128
 3218.15	  3136
 3218.25	  3148
 3218.35	  3156
 3218.45	  3161
 3218.55	  3174
 3218.65	  3183
 3218.75	  3192
 3218.85	  3204
 3218.95	  3212
 3219.05	  3220
 3219.15	  3230
 3219.25	  3240
 3219.35	  3249
 3219.45	  3260
 3219.55	  3267
 3219.65	  3277
 3219.75	  3287
 3219.85	  3295
 3219.95	  3304
 3220.05	  3314
 3220.15	  3323
 3220.25	  3332
 3220.35	  3341
 3220.45	  3351
 3220.55	  3361
 3220.65	  3371
 3220.75	  3381
 3220.85	  3389
 3220.95	  3396
 3221.05	  3407
 3221.15	  3416
 3221.25	  3423
 3221.35	  3432
 3221.45	  3438
 3221.55	  3441
 3221.65	  3451
 3221.75	  3459
 3221.85	  3469
 3221.95	  3478
 3222.05	  3485
 3222.15	  3493
 3222.25	  3501
 3222.35	  3508
 3222.45	  3516
 3222.55	  3523
 3222.65	  3531
 3222.75	  3539
 3222.85	  3548
 3222.95	  3555
 3223.06	  3563
 3223.16	  3573
 3223.26	  3581
 3223.36	  3589
 3223.46	  3599
 3223.56	  3606
 3223.66	  3613
 3223.76	  3620
 3223.86	  3628
 3223.96	  3635
 3224.06	  3641
 3224.16	  3648
 3224.26	  3654
 3224.36	  3661
 3224.46	  3670
 3224.56	  3676
 3224.66	  3678
 3224.76	  3686
 3224.86	  3689
 3224.96	  3698
 3225.06	  3705
 3225.16	  3711
 3225.26	  3716
 3225.36	  3722
 3225.46	  3729
 3225.56	  3735
 3225.66	  3740
 3225.76	  3745
 3225.86	  3750
 3225.96	  3755
 3226.06	  3758
 3226.16	  3762
 3226.26	  3769
 3226.36	  3773
 3226.46	  3778
 3226.56	  3782
 3226.66	  3787
 3226.76	  3791
 3226.86	  3796
 3226.96	  3800
 3227.06	  3803
 3227.16	  3807
 3227.26	  3810
 3227.36	  3813
 3227.46	  3818
 3227.56	  3824
 3227.66	  3825
 3227.76	  3828
 3227.86	  3832
 3227.96	  3830
 3228.06	  3835
 3228.16	  3835
 3228.26	  3839
 3228.36	  3840
 3228.46	  3843
 3228.56	  3846
 3228.66	  3848
 3228.76	  3850
 3228.86	  3851
 3228.96	  3851
 3229.06	  3850
 3229.16	  3851
 3229.26	  3851
 3229.36	  3853
 3229.46	  3852
 3229.56	  3853
 3229.66	  3853
 3229.76	  3852
 3229.86	  3852
 3229.96	  3855
 3230.06	  3853
 3230.16	  3851
 3230.26	  3849
 3230.36	  3844
 3230.46	  3841
 3230.56	  3841
 3230.66	  3840
 3230.76	  3837
 3230.86	  3836
 3230.96	  3834
 3231.07	  3827
 3231.17	  3829
 3231.27	  3826
 3231.37	  3824
 3231.47	  3824
 3231.57	  3821
 3231.67	  3820
 3231.77	  3816
 3231.87	  3813
 3231.97	  3810
 3232.07	  3804
 3232.17	  3800
 3232.27	  3796
 3232.37	  3793
 3232.47	  3789
 3232.57	  3784
 3232.67	  3778
 3232.77	  3772
 3232.87	  3766
 3232.97	  3758
 3233.07	  3753
 3233.17	  3748
 3233.27	  3742
 3233.37	  3739
 3233.47	  3731
 3233.57	  3724
 3233.67	  3720
 3233.77	  3715
 3233.87	  3707
 3233.97	  3703
 3234.07	  3693
 3234.17	  3683
 3234.27	  3678
 3234.37	  3668
 3234.47	  3662
 3234.57	  3654
 3234.67	  3647
 3234.77	  3639
 3234.87	  3630
 3234.97	  3622
 3235.07	  3616
 3235.17	  3605
 3235.27	  3597
 3235.37	  3589
 3235.47	  3578
 3235.57	  3569
 3235.67	  3561
 3235.77	  3552
 3235.87	  3543
 3235.97	  3535
 3236.07	  3524
 3236.17	  3515
 3236.27	  3504
 3236.37	  3494
 3236.47	  3486
 3236.57	  3475
 3236.67	  3462
 3236.77	  3454
 3236.87	  3442
 3236.97	  3432
 3237.07	  3423
 3237.17	  3406
 3237.27	  3393
 3237.37	  3383
 3237.47	  3368
 3237.57	  3359
 3237.67	  3346
 3237.77	  3335
 3237.87	  3322
 3237.97	  3309
 3238.07	  3296
 3238.17	  3282
 3238.27	  3268
 3238.37	  3255
 3238.47	  3243
 3238.57	  3228
 3238.67	  3216
 3238.77	  3204
 3238.87	  3190
 3238.97	  3177
 3239.08	  3164
 3239.18	  3149
 3239.28	  3135
 3239.38	  3121
 3239.48	  3106
 3239.58	  3095
 3239.68	  3080
 3239.78	  3064
 3239.88	  3053
 3239.98	  3038
 3240.08	  3026
 3240.18	  3018
 3240.28	  2999
 3240.38	  2985
 3240.48	  2974
 3240.58	  2958
 3240.68	  2947
 3240.78	  2934
 3240.88	  2920
 3240.98	  2907
 3241.08	  2892
 3241.18	  2878
 3241.28	  2864
 3241.38	  2850
 3241.48	  2836
 3241.58	  2821
 3241.68	  2805
 3241.78	  2790
 3241.88	  2774
 3241.98	  2759
 3242.08	  2744
 3242.18	  2729
 3242.28	  2712
 3242.38	  2699
 3242.48	  2683
 3242.58	  2668
 3242.68	  2656
 3242.78	  2639
 3242.88	  2622
 3242.98	  2608
 3243.08	  2591
 3243.18	  2578
 3243.28	  2569
 3243.38	  2548
 3243.48	  2534
 3243.58	  2518
 3243.68	  2502
 3243.78	  2489
 3243.88	  2475
 3243.98	  2460
 3244.08	  2445
 3244.18	  2432
 3244.28	  2416
 3244.38	  2402
 3244.48	  2389
 3244.58	  2375
 3244.68	  2361
 3244.78	  2348
 3244.88	  2334
 3244.98	  2320
 3245.08	  2306
 3245.18	  2293
 3245.28	  2279
 3245.38	  2263
 3245.48	  2249
 3245.58	  2235
 3245.68	  2222
 3245.78	  2211
 3245.88	  2197
 3245.98	  2182
 3246.08	  2168
 3246.18	  2150
 3246.28	  2138
 3246.38	  2129
 3246.48	  2110
 3246.58	  2098
 3246.68	  2081
 3246.78	  2065
 3246.88	  2052
 3246.98	  2039
 3247.09	  2026
 3247.19	  2014
 3247.29	  2002
 3247.39	  1989
 3247.49	  1976
 3247.59	  1964
 3247.69	  1950
 3247.79	  1937
 3247.89	  1924
 3247.99	  1911
 3248.09	  1900
 3248.19	  1887
 3248.29	  1875
 3248.39	  1862
 3248.49	  1850
 3248.59	  1838
 3248.69	  1826
 3248.79	  1815
 3248.89	  1806
 3248.99	  1794
 3249.09	  1782
 3249.19	  1771
 3249.29	  1756
 3249.39	  1748
 3249.49	  1740
 3249.59	  1726
 3249.69	  1717
 3249.79	  1704
 3249.89	  1693
 3249.99	  1682
 3250.09	  1671
 3250.19	  1661
 3250.29	  1651
 3250.39	  1640
 3250.49	  1629
 3250.59	  1618
 3250.69	  1607
 3250.79	  1596
 3250.89	  1586
 3250.99	  1576
 3251.09	  1565
 3251.19	  1557
 3251.29	  1548
 3251.39	  1539
 3251.49	  1529
 3251.59	  1520
 3251.69	  1509
 3251.79	  1498
 3251.89	  1490
 3251.99	  1482
 3252.09	  1472
 3252.19	  1464
 3252.29	  1455
 3252.39	  1441
 3252.49	  1435
 3252.59	  1428
 3252.69	  1418
 3252.79	  1412
 3252.89	  1401
 3252.99	  1393
 3253.09	  1383
 3253.19	  1375
 3253.29	  1368
 3253.39	  1360
 3253.49	  1353
 3253.59	  1346
 3253.69	  1337
 3253.79	  1329
 3253.89	  1321
 3253.99	  1313
 3254.09	  1306
 3254.19	  1298
 3254.29	  1291
 3254.39	  1285
 3254.49	  1277
 3254.59	  1269
 3254.69	  1263
 3254.79	  1256
 3254.89	  1249
 3254.99	  1243
  3255.1	  1236
  3255.2	  1229
  3255.3	  1224
  3255.4	  1217
  3255.5	  1208
  3255.6	  1206
  3255.7	  1201
  3255.8	  1195
  3255.9	  1191
  3256.0	  1183
  3256.1	  1177
  3256.2	  1170
  3256.3	  1165
  3256.4	  1160
  3256.5	  1154
  3256.6	  1149
  3256.7	  1143
  3256.8	  1137
  3256.9	  1132
  3257.0	  1126
  3257.1	  1121
  3257.2	  1115
  3257.3	  1110
  3257.4	  1105
  3257.5	  1100
  3257.6	  1095
  3257.7	  1091
  3257.8	  1087
  3257.9	  1082
  3258.0	  1076
  3258.1	  1075
  3258.2	  1071
  3258.3	  1068
  3258.4	  1068
  3258.5	  1062
  3258.6	  1056
  3258.7	  1055
  3258.8	  1049
  3258.9	  1047
  3259.0	  1045
  3259.1	  1041
  3259.2	  1038
  3259.3	  1036
  3259.4	  1033
  3259.5	  1029
  3259.6	  1026
  3259.7	  1024
  3259.8	  1019
  3259.9	  1015
  3260.0	  1010
  3260.1	  1006
  3260.2	  1002
  3260.3	   998
  3260.4	   994
  3260.5	   991
  3260.6	   989
  3260.7	   987
  3260.8	   985
  3260.9	   984
  3261.0	   981
  3261.1	   978
  3261.2	   976
  3261.3	   974
  3261.4	   972
  3261.5	   973
  3261.6	   969
  3261.7	   966
  3261.8	   966
  3261.9	   961
  3262.0	   963
  3262.1	   961
  3262.2	   959
  3262.3	   956
  3262.4	   954
  3262.5	   952
  3262.6	   950
  3262.7	   951
  3262.8	   951
  3262.9	   949
 3263.01	   948
 3263.11	   948
 3263.21	   947
 3263.31	   946
 3263.41	   944
 3263.51	   942
 3263.61	   939
 3263.71	   937
 3263.81	   935
 3263.91	   934
 3264.01	   934
 3264.11	   933
 3264.21	   932
 3264.31	   931
 3264.41	   931
 3264.51	   932
 3264.61	   934
 3264.71	   931
 3264.81	   930
 3264.91	   929
 3265.01	   924
 3265.11	   927
 3265.21	   926
 3265.31	   926
 3265.41	   925
 3265.51	   925
 3265.61	   924
 3265.71	   923
 3265.81	   923
 3265.91	   922
 3266.01	   921
 3266.11	   921
 3266.21	   921
 3266.31	   920
 3266.41	   920
 3266.51	   920
 3266.61	   920
 3266.71	   920
 3266.81	   921
 3266.91	   920
 3267.01	   922
 3267.11	   923
 3267.21	   923
 3267.31	   925
 3267.41	   925
 3267.51	   924
 3267.61	   927
 3267.71	   929
 3267.81	   928
 3267.91	   930
 3268.01	   928
 3268.11	   924
 3268.21	   926
 3268.31	   924
 3268.41	   924
 3268.51	   923
 3268.61	   922
 3268.71	   922
 3268.81	   923
 3268.91	   926
 3269.01	   928
 3269.11	   930
 3269.21	   932
 3269.31	   932
 3269.41	   933
 3269.51	   934
 3269.61	   935
 3269.71	   936
 3269.81	   937
 3269.91	   937
 3270.01	   936
 3270.11	   938
 3270.21	   939
 3270.31	   941
 3270.41	   944
 3270.51	   943
 3270.61	   942
 3270.71	   945
 3270.81	   948
 3270.91	   950
 3271.02	   954
 3271.12	   952
 3271.22	   951
 3271.32	   952
 3271.42	   951
 3271.52	   953
 3271.62	   953
 3271.72	   954
 3271.82	   955
 3271.92	   956
 3272.02	   958
 3272.12	   959
 3272.22	   961
 3272.32	   962
 3272.42	   963
 3272.52	   965
 3272.62	   967
 3272.72	   967
 3272.82	   968
 3272.92	   971
 3273.02	   972
 3273.12	   973
 3273.22	   976
 3273.32	   976
 3273.42	   978
 3273.52	   981
 3273.62	   981
 3273.72	   981
 3273.82	   983
 3273.92	   983
 3274.02	   985
 3274.12	   991
 3274.22	   988
 3274.32	   990
 3274.42	   992
 3274.52	   992
 3274.62	   995
 3274.72	   997
 3274.82	  1001
 3274.92	  1002
 3275.02	  1004
 3275.12	  1005
 3275.22	  1006
 3275.32	  1007
 3275.42	  1010
 3275.52	  1011
 3275.62	  1014
 3275.72	  1016
 3275.82	  1017
 3275.92	  1018
 3276.02	  1021
 3276.12	  1022
 3276.22	  1024
 3276.32	  1026
 3276.42	  1026
 3276.52	  1027
 3276.62	  1032
 3276.72	  1032
 3276.82	  1033
 3276.92	  1036
 3277.02	  1035
 3277.12	  1041
 3277.22	  1048
 3277.32	  1045
 3277.42	  1049
 3277.52	  1050
 3277.62	  1052
 3277.72	  1055
 3277.82	  1056
 3277.92	  1057
 3278.02	  1058
 3278.12	  1060
 3278.22	  1062
 3278.32	  1064
 3278.42	  1066
 3278.52	  1068
 3278.62	  1070
 3278.72	  1071
 3278.82	  1074
 3278.92	  1075
 3279.03	  1076
 3279.13	  1079
 3279.23	  1080
 3279.33	  1081
 3279.43	  1084
 3279.53	  1084
 3279.63	  1087
 3279.73	  1090
 3279.83	  1089
 3279.93	  1090
 3280.03	  1093
 3280.13	  1091
 3280.23	  1097
 3280.33	  1103
 3280.43	  1102
 3280.53	  1108
 3280.63	  1108
 3280.73	  1110
 3280.83	  1114
 3280.93	  1117
 3281.03	  1119
 3281.13	  1121
 3281.23	  1123
 3281.33	  1126
 3281.43	  1128
 3281.53	  1130
 3281.63	  1133
 3281.73	  1135
 3281.83	  1137
 3281.93	  1139
 3282.03	  1141
 3282.13	  1142
 3282.23	  1144
 3282.33	  1145
 3282.43	  1148
 3282.53	  1152
 3282.63	  1152
 3282.73	  1156
 3282.83	  1160
 3282.93	  1160
 3283.03	  1163
 3283.13	  1165
 3283.23	  1163
 3283.33	  1169
 3283.43	  1174
 3283.53	  1174
 3283.63	  1178
 3283.73	  1178
 3283.83	  1180
 3283.93	  1181
 3284.03	  1184
 3284.13	  1187
 3284.23	  1190
 3284.33	  1192
 3284.43	  1194
 3284.53	  1197
 3284.63	  1200
 3284.73	  1203
 3284.83	  1206
 3284.93	  1209
 3285.03	  1212
 3285.13	  1214
 3285.23	  1217
 3285.33	  1220
 3285.43	  1223
 3285.53	  1225
 3285.63	  1226
 3285.73	  1227
 3285.83	  1231
 3285.93	  1235
 3286.03	  1237
 3286.13	  1242
 3286.23	  1244
 3286.33	  1242
 3286.43	  1249
 3286.53	  1252
 3286.63	  1255
 3286.73	  1260
 3286.83	  1261
 3286.93	  1263
 3287.04	  1266
 3287.14	  1269
 3287.24	  1272
 3287.34	  1275
 3287.44	  1278
 3287.54	  1281
 3287.64	  1282
 3287.74	  1284
 3287.84	  1286
 3287.94	  1290
 3288.04	  1293
 3288.14	  1296
 3288.24	  1299
 3288.34	  1301
 3288.44	  1304
 3288.54	  1308
 3288.64	  1311
 3288.74	  1312
 3288.84	  1314
 3288.94	  1318
 3289.04	  1321
 3289.14	  1325
 3289.24	  1329
 3289.34	  1330
 3289.44	  1330
 3289.54	  1334
 3289.64	  1335
 3289.74	  1339
 3289.84	  1344
 3289.94	  1348
 3290.04	  1351
 3290.14	  1355
 3290.24	  1359
 3290.34	  1361
 3290.44	  1363
 3290.54	  1366
 3290.64	  1368
 3290.74	  1371
 3290.84	  1374
 3290.94	  1377
 3291.04	  1381
 3291.14	  1383
 3291.24	  1386
 3291.34	  1390
 3291.44	  1393
 3291.54	  1396
 3291.64	  1402
 3291.74	  1406
 3291.84	  1408
 3291.94	  1412
 3292.04	  1417
 3292.14	  1420
 3292.24	  1425
 3292.34	  1430
 3292.44	  1431
 3292.54	  1433
 3292.64	  1437
 3292.74	  1435
 3292.84	  1441
 3292.94	  1444
 3293.04	  1448
 3293.14	  1451
 3293.24	  1454
 3293.34	  1459
 3293.44	  1462
 3293.54	  1466
 3293.64	  1470
 3293.74	  1473
 3293.84	  1477
 3293.94	  1480
 3294.04	  1483
 3294.14	  1487
 3294.24	  1491
 3294.34	  1494
 3294.44	  1498
 3294.54	  1501
 3294.64	  1503
 3294.74	  1508
 3294.84	  1512
 3294.94	  1515
 3295.05	  1521
 3295.15	  1524
 3295.25	  1526
 3295.35	  1532
 3295.45	  1538
 3295.55	  1539
 3295.65	  1544
 3295.75	  1546
 3295.85	  1547
 3295.95	  1554
 3296.05	  1555
 3296.15	  1559
 3296.25	  1562
 3296.35	  1566
 3296.45	  1570
 3296.55	  1574
 3296.65	  1579
 3296.75	  1584
 3296.85	  1588
 3296.95	  1592
 3297.05	  1597
 3297.15	  1601
 3297.25	  1606
 3297.35	  1610
 3297.45	  1614
 3297.55	  1619
 3297.65	  1622
 3297.75	  1626
 3297.85	  1631
 3297.95	  1635
 3298.05	  1639
 3298.15	  1646
 3298.25	  1648
 3298.35	  1651
 3298.45	  1658
 3298.55	  1663
 3298.65	  1668
 3298.75	  1676
 3298.85	  1678
 3298.95	  1681
 3299.05	  1688
 3299.15	  1692
 3299.25	  1699
 3299.35	  1704
 3299.45	  1708
 3299.55	  1713
 3299.65	  1717
 3299.75	  1722
 3299.85	  1727
 3299.95	  1732
 3300.05	  1737
 3300.15	  1742
 3300.25	  1746
 3300.35	  1751
 3300.45	  1756
 3300.55	  1760
 3300.65	  1765
 3300.75	  1769
 3300.85	  1773
 3300.95	  1779
 3301.05	  1784
 3301.15	  1789
 3301.25	  1796
 3301.35	  1799
 3301.45	  1803
 3301.55	  1810
 3301.65	  1815
 3301.75	  1822
 3301.85	  1832
 3301.95	  1833
 3302.05	  1838
 3302.15	  1844
 3302.25	  1848
 3302.35	  1855
 3302.45	  1860
 3302.55	  1866
 3302.65	  1871
 3302.75	  1876
 3302.85	  1881
 3302.95	  1888
 3303.06	  1894
 3303.16	  1901
 3303.26	  1907
 3303.36	  1913
 3303.46	  1919
 3303.56	  1926
 3303.66	  1931
 3303.76	  1938
 3303.86	  1942
 3303.96	  1947
 3304.06	  1955
 3304.16	  1961
 3304.26	  1968
 3304.36	  1976
 3304.46	  1979
 3304.56	  1984
 3304.66	  1990
 3304.76	  1993
 3304.86	  2002
 3304.96	  2013
 3305.06	  2014
 3305.16	  2022
 3305.26	  2029
 3305.36	  2033
 3305.46	  2040
 3305.56	  2047
 3305.66	  2052
 3305.76	  2059
 3305.86	  2065
 3305.96	  2072
 3306.06	  2079
 3306.16	  2086
 3306.26	  2093
 3306.36	  2099
 3306.46	  2106
 3306.56	  2113
 3306.66	  2119
 3306.76	  2126
 3306.86	  2134
 3306.96	  2141
 3307.06	  2147
 3307.16	  2155
 3307.26	  2161
 3307.36	  2169
 3307.46	  2178
 3307.56	  2184
 3307.66	  2191
 3307.76	  2197
 3307.86	  2201
 3307.96	  2212
 3308.06	  2223
 3308.16	  2226
 3308.26	  2236
 3308.36	  2241
 3308.46	  2248
 3308.56	  2255
 3308.66	  2264
 3308.76	  2271
 3308.86	  2278
 3308.96	  2286
 3309.06	  2293
 3309.16	  2301
 3309.26	  2309
 3309.36	  2317
 3309.46	  2325
 3309.56	  2333
 3309.66	  2341
 3309.76	  2349
 3309.86	  2358
 3309.96	  2367
 3310.06	  2375
 3310.16	  2383
 3310.26	  2390
 3310.36	  2397
 3310.46	  2404
 3310.56	  2413
 3310.66	  2421
 3310.76	  2430
 3310.86	  2438
 3310.96	  2442
 3311.07	  2455
 3311.17	  2466
 3311.27	  2475
 3311.37	  2486
 3311.47	  2491
 3311.57	  2500
 3311.67	  2507
 3311.77	  2516
 3311.87	  2524
 3311.97	  2533
 3312.07	  2543
 3312.17	  2551
 3312.27	  2560
 3312.37	  2570
 3312.47	  2579
 3312.57	  2588
 3312.67	  2599
 3312.77	  2608
 3312.87	  2617
 3312.97	  2627
 3313.07	  2636
 3313.17	  2645
 3313.27	  2656
 3313.37	  2664
 3313.47	  2672
 3313.57	  2682
 3313.67	  2692
 3313.77	  2701
 3313.87	  2712
 3313.97	  2720
 3314.07	  2728
 3314.17	  2740
 3314.27	  2747
 3314.37	  2759
 3314.47	  2770
 3314.57	  2779
 3314.67	  2789
 3314.77	  2797
 3314.87	  2807
 3314.97	  2817
 3315.07	  2825
 3315.17	  2834
 3315.27	  2843
 3315.37	  2852
 3315.47	  2860
 3315.57	  2869
 3315.67	  2879
 3315.77	  2890
 3315.87	  2898
 3315.97	  2908
 3316.07	  2917
 3316.17	  2926
 3316.27	  2936
 3316.37	  2947
 3316.47	  2955
 3316.57	  2963
 3316.67	  2973
 3316.77	  2982
 3316.87	  2992
 3316.97	  3003
 3317.07	  3010
 3317.17	  3018
 3317.27	  3029
 3317.37	  3034
 3317.47	  3047
 3317.57	  3056
 3317.67	  3067
 3317.77	  3079
 3317.87	  3089
 3317.97	  3100
 3318.07	  3111
 3318.17	  3121
 3318.27	  3133
 3318.37	  3143
 3318.47	  3152
 3318.57	  3163
 3318.67	  3170
 3318.77	  3180
 3318.87	  3188
 3318.97	  3198
 3319.08	  3208
 3319.18	  3219
 3319.28	  3227
 3319.38	  3236
 3319.48	  3246
 3319.58	  3253
 3319.68	  3262
 3319.78	  3272
 3319.88	  3280
 3319.98	  3291
 3320.08	  3303
 3320.18	  3312
 3320.28	  3322
 3320.38	  3331
 3320.48	  3338
 3320.58	  3351
 3320.68	  3359
 3320.78	  3371
 3320.88	  3384
 3320.98	  3392
 3321.08	  3402
 3321.18	  3413
 3321.28	  3422
 3321.38	  3432
 3321.48	  3441
 3321.58	  3450
 3321.68	  3459
 3321.78	  3468
 3321.88	  3477
 3321.98	  3486
 3322.08	  3495
 3322.18	  3505
 3322.28	  3514
 3322.38	  3521
 3322.48	  3531
 3322.58	  3540
 3322.68	  3548
 3322.78	  3557
 3322.88	  3565
 3322.98	  3570
 3323.08	  3581
 3323.18	  3591
 3323.28	  3598
 3323.38	  3610
 3323.48	  3616
 3323.58	  3621
 3323.68	  3631
 3323.78	  3636
 3323.88	  3645
 3323.98	  3653
 3324.08	  3660
 3324.18	  3667
 3324.28	  3674
 3324.38	  3682
 3324.48	  3689
 3324.58	  3697
 3324.68	  3704
 3324.78	  3710
 3324.88	  3716
 3324.98	  3724
 3325.08	  3731
 3325.18	  3738
 3325.28	  3745
 3325.38	  3751
 3325.48	  3757
 3325.58	  3765
 3325.68	  3771
 3325.78	  3777
 3325.88	  3785
 3325.98	  3789
 3326.08	  3793
 3326.18	  3800
 3326.28	  3806
 3326.38	  3811
 3326.48	  3821
 3326.58	  3822
 3326.68	  3826
 3326.78	  3833
 3326.88	  3837
 3326.98	  3845
 3327.09	  3849
 3327.19	  3855
 3327.29	  3858
 3327.39	  3859
 3327.49	  3862
 3327.59	  3867
 3327.69	  3871
 3327.79	  3875
 3327.89	  3879
 3327.99	  3884
 3328.09	  3885
 3328.19	  3887
 3328.29	  3889
 3328.39	  3892
 3328.49	  3892
 3328.59	  3894
 3328.69	  3896
 3328.79	  3896
 3328.89	  3898
 3328.99	  3902
 3329.09	  3902
 3329.19	  3903
 3329.29	  3907
 3329.39	  3906
 3329.49	  3908
 3329.59	  3914
 3329.69	  3912
 3329.79	  3911
 3329.89	  3909
 3329.99	  3907
 3330.09	  3906
 3330.19	  3907
 3330.29	  3909
 3330.39	  3907
 3330.49	  3906
 3330.59	  3904
 3330.69	  3902
 3330.79	  3900
 3330.89	  3898
 3330.99	  3895
 3331.09	  3892
 3331.19	  3888
 3331.29	  3886
 3331.39	  3885
 3331.49	  3882
 3331.59	  3878
 3331.69	  3876
 3331.79	  3872
 3331.89	  3867
 3331.99	  3864
 3332.09	  3862
 3332.19	  3857
 3332.29	  3851
 3332.39	  3846
 3332.49	  3838
 3332.59	  3837
 3332.69	  3836
 3332.79	  3827
 3332.89	  3823
 3332.99	  3815
 3333.09	  3811
 3333.19	  3805
 3333.29	  3800
 3333.39	  3796
 3333.49	  3789
 3333.59	  3783
 3333.69	  3778
 3333.79	  3771
 3333.89	  3764
 3333.99	  3758
 3334.09	  3751
 3334.19	  3743
 3334.29	  3735
 3334.39	  3727
 3334.49	  3719
 3334.59	  3712
 3334.69	  3703
 3334.79	  3696
 3334.89	  3687
 3334.99	  3677
  3335.1	  3670
  3335.2	  3662
  3335.3	  3651
  3335.4	  3642
  3335.5	  3630
  3335.6	  3615
  3335.7	  3609
  3335.8	  3600
  3335.9	  3589
  3336.0	  3581
  3336.1	  3569
  3336.2	  3558
  3336.3	  3545
  3336.4	  3533
  3336.5	  3520
  3336.6	  3508
  3336.7	  3497
  3336.8	  3488
  3336.9	  3475
  3337.0	  3465
  3337.1	  3453
  3337.2	  3441
  3337.3	  3430
  3337.4	  3418
  3337.5	  3407
  3337.6	  3395
  3337.7	  3385
  3337.8	  3371
  3337.9	  3360
  3338.0	  3346
  3338.1	  3332
  3338.2	  3319
  3338.3	  3306
  3338.4	  3295
  3338.5	  3286
  3338.6	  3270
  3338.7	  3253
  3338.8	  3243
  3338.9	  3228
  3339.0	  3215
  3339.1	  3204
  3339.2	  3188
  3339.3	  3173
  3339.4	  3158
  3339.5	  3143
  3339.6	  3128
  3339.7	  3114
  3339.8	  3100
  3339.9	  3086
  3340.0	  3070
  3340.1	  3056
  3340.2	  3042
  3340.3	  3026
  3340.4	  3011
  3340.5	  2997
  3340.6	  2981
  3340.7	  2966
  3340.8	  2951
  3340.9	  2937
  3341.0	  2924
  3341.1	  2907
  3341.2	  2891
  3341.3	  2876
  3341.4	  2860
  3341.5	  2845
  3341.6	  2831
  3341.7	  2813
  3341.8	  2795
  3341.9	  2784
  3342.0	  2766
  3342.1	  2754
  3342.2	  2740
  3342.3	  2723
  3342.4	  2709
  3342.5	  2694
  3342.6	  2678
  3342.7	  2663
  3342.8	  2648
  3342.9	  2633
 3343.01	  2618
 3343.11	  2603
 3343.21	  2588
 3343.31	  2574
 3343.41	  2560
 3343.51	  2545
 3343.61	  2531
 3343.71	  2515
 3343.81	  2500
 3343.91	  2483
 3344.01	  2467
 3344.11	  2452
 3344.21	  2437
 3344.31	  2421
 3344.41	  2406
 3344.51	  2389
 3344.61	  2376
 3344.71	  2362
 3344.81	  2345
 3344.91	  2330
 3345.01	  2313
 3345.11	  2293
 3345.21	  2281
 3345.31	  2265
 3345.41	  2251
 3345.51	  2235
 3345.61	  2222
 3345.71	  2206
 3345.81	  2191
 3345.91	  2176
 3346.01	  2162
 3346.11	  2146
 3346.21	  2132
 3346.31	  2117
 3346.41	  2103
 3346.51	  2088
 3346.61	  2074
 3346.71	  2060
 3346.81	  2046
 3346.91	  2032
 3347.01	  2018
 3347.11	  2006
 3347.21	  1994
 3347.31	  1981
 3347.41	  1968
 3347.51	  1954
 3347.61	  1939
 3347.71	  1928
 3347.81	  1916
 3347.91	  1901
 3348.01	  1890
 3348.11	  1875
 3348.21	  1860
 3348.31	  1850
 3348.41	  1836
 3348.51	  1825
 3348.61	  1812
 3348.71	  1799
 3348.81	  1786
 3348.91	  1772
 3349.01	  1760
 3349.11	  1746
 3349.21	  1733
 3349.31	  1722
 3349.41	  1709
 3349.51	  1697
 3349.61	  1687
 3349.71	  1675
 3349.81	  1662
 3349.91	  1652
 3350.01	  1640
 3350.11	  1628
 3350.21	  1617
 3350.31	  1605
 3350.41	  1595
 3350.51	  1586
 3350.61	  1573
 3350.71	  1561
 3350.81	  1552
 3350.91	  1541
 3351.02	  1531
 3351.12	  1524
 3351.22	  1509
 3351.32	  1498
 3351.42	  1489
 3351.52	  1478
 3351.62	  1471
 3351.72	  1462
 3351.82	  1453
 3351.92	  1443
 3352.02	  1433
 3352.12	  1425
 3352.22	  1416
 3352.32	  1407
 3352.42	  1400
 3352.52	  1390
 3352.62	  1381
 3352.72	  1373
 3352.82	  1363
 3352.92	  1355
 3353.02	  1347
 3353.12	  1338
 3353.22	  1330
 3353.32	  1322
 3353.42	  1312
 3353.52	  1305
 3353.62	  1298
 3353.72	  1288
 3353.82	  1278
 3353.92	  1271
 3354.02	  1260
 3354.12	  1256
 3354.22	  1253
 3354.32	  1241
 3354.42	  1236
 3354.52	  1228
 3354.62	  1219
 3354.72	  1215
 3354.82	  1210
 3354.92	  1205
 3355.02	  1200
 3355.12	  1194
 3355.22	  1188
 3355.32	  1182
 3355.42	  1174
 3355.52	  1167
 3355.62	  1160
 3355.72	  1154
 3355.82	  1148
 3355.92	  1143
 3356.02	  1136
 3356.12	  1132
 3356.22	  1124
 3356.32	  1118
 3356.42	  1113
 3356.52	  1105
 3356.62	  1101
 3356.72	  1097
 3356.82	  1090
 3356.92	  1084
 3357.02	  1078
 3357.12	  1070
 3357.22	  1069
 3357.32	  1067
 3357.42	  1059
 3357.52	  1058
 3357.62	  1051
 3357.72	  1047
 3357.82	  1045
 3357.92	  1041
 3358.02	  1038
 3358.12	  1035
 3358.22	  1030
 3358.32	  1027
 3358.42	  1024
 3358.52	  1020
 3358.62	  1015
 3358.72	  1011
 3358.82	  1007
 3358.92	  1003
 3359.03	   999
 3359.13	   995
 3359.23	   993
 3359.33	   989
 3359.43	   986
 3359.53	   983
 3359.63	   978
 3359.73	   976
 3359.83	   975
 3359.93	   970
 3360.03	   968
 3360.13	   965
 3360.23	   958
 3360.33	   959
 3360.43	   957
 3360.53	   952
 3360.63	   952
 3360.73	   947
 3360.83	   945
 3360.93	   942
 3361.03	   940
 3361.13	   938
 3361.23	   937
 3361.33	   934
 3361.43	   932
 3361.53	   929
 3361.63	   927
 3361.73	   925
 3361.83	   924
 3361.93	   921
 3362.03	   919
 3362.13	   918
 3362.23	   916
 3362.33	   916
 3362.43	   915
 3362.53	   915
 3362.63	   913
 3362.73	   909
 3362.83	   908
 3362.93	   907
 3363.03	   904
 3363.13	   904
 3363.23	   902
 3363.33	   897
 3363.43	   901
 3363.53	   898
 3363.63	   898
 3363.73	   900
 3363.83	   898
 3363.93	   897
 3364.03	   897
 3364.13	   897
 3364.23	   896
 3364.33	   897
 3364.43	   896
 3364.53	   896
 3364.63	   896
 3364.73	   894
 3364.83	   894
 3364.93	   894
 3365.03	   892
 3365.13	   891
 3365.23	   890
 3365.33	   889
 3365.43	   888
 3365.53	   888
 3365.63	   888
 3365.73	   887
 3365.83	   886
 3365.93	   887
 3366.03	   886
 3366.13	   887
 3366.23	   890
 3366.33	   889
 3366.43	   888
 3366.53	   890
 3366.63	   887
 3366.73	   890
 3366.83	   890
 3366.93	   891
 3367.04	   891
 3367.14	   891
 3367.24	   892
 3367.34	   892
 3367.44	   893
 3367.54	   893
 3367.64	   893
 3367.74	   894
 3367.84	   895
 3367.94	   894
 3368.04	   896
 3368.14	   896
 3368.24	   897
 3368.34	   897
 3368.44	   897
 3368.54	   895
 3368.64	   897
 3368.74	   897
 3368.84	   897
 3368.94	   897
 3369.04	   898
 3369.14	   897
 3369.24	   900
 3369.34	   902
 3369.44	   899
 3369.54	   899
 3369.64	   899
 3369.74	   897
 3369.84	   902
 3369.94	   903
 3370.04	   907
 3370.14	   907
 3370.24	   909
 3370.34	   910
 3370.44	   912
 3370.54	   913
 3370.64	   914
 3370.74	   913
 3370.84	   914
 3370.94	   914
 3371.04	   914
 3371.14	   916
 3371.24	   918
 3371.34	   919
 3371.44	   921
 3371.54	   923
 3371.64	   924
 3371.74	   927
 3371.84	   927
 3371.94	   927
 3372.04	   930
 3372.14	   929
 3372.24	   929
 3372.34	   933
 3372.44	   937
 3372.54	   938
 3372.64	   943
 3372.74	   941
 3372.84	   939
 3372.94	   942
 3373.04	   940
 3373.14	   942
 3373.24	   943
 3373.34	   944
 3373.44	   946
 3373.54	   947
 3373.64	   949
 3373.74	   952
 3373.84	   954
 3373.94	   956
 3374.04	   959
 3374.14	   960
 3374.24	   962
 3374.34	   964
 3374.44	   965
 3374.54	   968
 3374.64	   969
 3374.74	   969
 3374.84	   973
 3374.94	   976
 3375.05	   979
 3375.15	   983
 3375.25	   982
 3375.35	   981
 3375.45	   984
 3375.55	   985
 3375.65	   989
 3375.75	   995
 3375.85	   993
 3375.95	   994
 3376.05	   997
 3376.15	   996
 3376.25	   999
 3376.35	  1001
 3376.45	  1002
 3376.55	  1003
 3376.65	  1004
 3376.75	  1004
 3376.85	  1006
 3376.95	  1008
 3377.05	  1011
 3377.15	  1013
 3377.25	  1015
 3377.35	  1017
 3377.45	  1018
 3377.55	  1019
 3377.65	  1020
 3377.75	  1021
 3377.85	  1021
 3377.95	  1025
 3378.05	  1025
 3378.15	  1029
 3378.25	  1032
 3378.35	  1032
 3378.45	  1033
 3378.55	  1037
 3378.65	  1037
 3378.75	  1042
 3378.85	  1050
 3378.95	  1047
 3379.05	  1050
 3379.15	  1050
 3379.25	  1051
 3379.35	  1053
 3379.45	  1055
 3379.55	  1057
 3379.65	  1060
 3379.75	  1062
 3379.85	  1065
 3379.95	  1067
 3380.05	  1069
 3380.15	  1069
 3380.25	  1069
 3380.35	  1071
 3380.45	  1073
 3380.55	  1077
 3380.65	  1080
 3380.75	  1084
 3380.85	  1087
 3380.95	  1090
 3381.05	  1093
 3381.15	  1094
 3381.25	  1097
 3381.35	  1102
 3381.45	  1101
 3381.55	  1102
 3381.65	  1103
 3381.75	  1101
 3381.85	  1106
 3381.95	  1111
 3382.05	  1110
 3382.15	  1116
 3382.25	  1116
 3382.35	  1117
 3382.45	  1120
 3382.55	  1122
 3382.65	  1123
 3382.75	  1125
 3382.85	  1129
 3382.95	  1132
 3383.06	  1135
 3383.16	  1138
 3383.26	  1140
 3383.36	  1142
 3383.46	  1144
 3383.56	  1146
 3383.66	  1147
 3383.76	  1150
 3383.86	  1153
 3383.96	  1156
 3384.06	  1158
 3384.16	  1159
 3384.26	  1160
 3384.36	  1163
 3384.46	  1166
 3384.56	  1166
 3384.66	  1168
 3384.76	  1169
 3384.86	  1167
 3384.96	  1174
 3385.06	  1177
 3385.16	  1179
 3385.26	  1184
 3385.36	  1185
 3385.46	  1187
 3385.56	  1190
 3385.66	  1193
 3385.76	  1195
 3385.86	  1196
 3385.96	  1198
 3386.06	  1200
 3386.16	  1201
 3386.26	  1204
 3386.36	  1205
 3386.46	  1208
 3386.56	  1211
 3386.66	  1214
 3386.76	  1216
 3386.86	  1219
 3386.96	  1222
 3387.06	  1224
 3387.16	  1228
 3387.26	  1231
 3387.36	  1233
 3387.46	  1237
 3387.56	  1240
 3387.66	  1243
 3387.76	  1246
 3387.86	  1246
 3387.96	  1246
 3388.06	  1252
 3388.16	  1254
 3388.26	  1258
 3388.36	  1261
 3388.46	  1263
 3388.56	  1265
 3388.66	  1267
 3388.76	  1270
 3388.86	  1273
 3388.96	  1276
 3389.06	  1279
 3389.16	  1281
 3389.26	  1284
 3389.36	  1288
 3389.46	  1291
 3389.56	  1294
 3389.66	  1298
 3389.76	  1301
 3389.86	  1303
 3389.96	  1306
 3390.06	  1308
 3390.16	  1311
 3390.26	  1315
 3390.36	  1315
 3390.46	  1317
 3390.56	  1320
 3390.66	  1321
 3390.76	  1325
 3390.86	  1330
 3390.96	  1331
 3391.07	  1333
 3391.17	  1336
 3391.27	  1333
 3391.37	  1340
 3391.47	  1342
 3391.57	  1345
 3391.67	  1349
 3391.77	  1351
 3391.87	  1354
 3391.97	  1357
 3392.07	  1360
 3392.17	  1364
 3392.27	  1368
 3392.37	  1371
 3392.47	  1375
 3392.57	  1378
 3392.67	  1382
 3392.77	  1386
 3392.87	  1388
 3392.97	  1391
 3393.07	  1394
 3393.17	  1396
 3393.27	  1400
 3393.37	  1405
 3393.47	  1408
 3393.57	  1412
 3393.67	  1414
 3393.77	  1415
 3393.87	  1419
 3393.97	  1424
 3394.07	  1424
 3394.17	  1429
 3394.27	  1431
 3394.37	  1432
 3394.47	  1439
 3394.57	  1440
 3394.67	  1445
 3394.77	  1449
 3394.87	  1451
 3394.97	  1454
 3395.07	  1457
 3395.17	  1460
 3395.27	  1464
 3395.37	  1467
 3395.47	  1470
 3395.57	  1473
 3395.67	  1476
 3395.77	  1481
 3395.87	  1485
 3395.97	  1488
 3396.07	  1493
 3396.17	  1497
 3396.27	  1500
 3396.37	  1505
 3396.47	  1509
 3396.57	  1512
 3396.67	  1517
 3396.77	  1518
 3396.87	  1520
 3396.97	  1526
 3397.07	  1529
 3397.17	  1532
 3397.27	  1540
 3397.37	  1540
 3397.47	  1542
 3397.57	  1547
 3397.67	  1550
 3397.77	  1557
 3397.87	  1562
 3397.97	  1566
 3398.07	  1570
 3398.17	  1574
 3398.27	  1577
 3398.37	  1580
 3398.47	  1584
 3398.57	  1587
 3398.67	  1590
 3398.77	  1593
 3398.87	  1596
 3398.97	  1599
 3399.08	  1603
 3399.18	  1608
 3399.28	  1611
 3399.38	  1614
 3399.48	  1619
 3399.58	  1622
 3399.68	  1626
 3399.78	  1633
 3399.88	  1635
 3399.98	  1637
 3400.08	  1642
 3400.18	  1645
 3400.28	  1652
 3400.38	  1661
 3400.48	  1660
 3400.58	  1665
 3400.68	  1668
 3400.78	  1672
 3400.88	  1678
 3400.98	  1684
 3401.08	  1690
 3401.18	  1694
 3401.28	  1698
 3401.38	  1703
 3401.48	  1707
 3401.58	  1713
 3401.68	  1718
 3401.78	  1722
 3401.88	  1727
 3401.98	  1731
 3402.08	  1736
 3402.18	  1741
 3402.28	  1746
 3402.38	  1750
 3402.48	  1754
 3402.58	  1758
 3402.68	  1761
 3402.78	  1766
 3402.88	  1773
 3402.98	  1776
 3403.08	  1780
 3403.18	  1785
 3403.28	  1786
 3403.38	  1795
 3403.48	  1805
 3403.58	  1806
 3403.68	  1812
 3403.78	  1815
 3403.88	  1821
 3403.98	  1826
 3404.08	  1832
 3404.18	  1838
 3404.28	  1843
 3404.38	  1849
 3404.48	  1854
 3404.58	  1859
 3404.68	  1865
 3404.78	  1871
 3404.88	  1877
 3404.98	  1883
 3405.08	  1889
 3405.18	  1894
 3405.28	  1899
 3405.38	  1904
 3405.48	  1909
 3405.58	  1915
 3405.68	  1921
 3405.78	  1925
 3405.88	  1932
 3405.98	  1940
 3406.08	  1944
 3406.18	  1950
 3406.28	  1955
 3406.38	  1957
 3406.48	  1968
 3406.58	  1975
 3406.68	  1980
 3406.78	  1989
 3406.88	  1992
 3406.98	  1998
 3407.09	  2003
 3407.19	  2009
 3407.29	  2015
 3407.39	  2021
 3407.49	  2028
 3407.59	  2034
 3407.69	  2041
 3407.79	  2048
 3407.89	  2053
 3407.99	  2059
 3408.09	  2065
 3408.19	  2071
 3408.29	  2077
 3408.39	  2085
 3408.49	  2091
 3408.59	  2099
 3408.69	  2107
 3408.79	  2113
 3408.89	  2119
 3408.99	  2126
 3409.09	  2133
 3409.19	  2139
 3409.29	  2147
 3409.39	  2152
 3409.49	  2156
 3409.59	  2166
 3409.69	  2172
 3409.79	  2182
 3409.89	  2191
 3409.99	  2197
 3410.09	  2204
 3410.19	  2211
 3410.29	  2217
 3410.39	  2224
 3410.49	  2230
 3410.59	  2237
 3410.69	  2245
 3410.79	  2251
 3410.89	  2259
 3410.99	  2267
 3411.09	  2275
 3411.19	  2283
 3411.29	  2291
 3411.39	  2301
 3411.49	  2310
 3411.59	  2317
 3411.69	  2327
 3411.79	  2337
 3411.89	  2343
 3411.99	  2350
 3412.09	  2359
 3412.19	  2364
 3412.29	  2373
 3412.39	  2383
 3412.49	  2388
 3412.59	  2393
 3412.69	  2403
 3412.79	  2407
 3412.89	  2418
 3412.99	  2425
 3413.09	  2434
 3413.19	  2444
 3413.29	  2452
 3413.39	  2460
 3413.49	  2469
 3413.59	  2477
 3413.69	  2485
 3413.79	  2495
 3413.89	  2502
 3413.99	  2512
 3414.09	  2521
 3414.19	  2531
 3414.29	  2541
 3414.39	  2550
 3414.49	  2559
 3414.59	  2567
 3414.69	  2576
 3414.79	  2586
 3414.89	  2596
 3414.99	  2605
  3415.1	  2614
  3415.2	  2621
  3415.3	  2627
  3415.4	  2638
  3415.5	  2650
  3415.6	  2657
  3415.7	  2668
  3415.8	  2677
  3415.9	  2683
  3416.0	  2695
  3416.1	  2703
  3416.2	  2714
  3416.3	  2723
  3416.4	  2734
  3416.5	  2742
  3416.6	  2751
  3416.7	  2760
  3416.8	  2771
  3416.9	  2779
  3417.0	  2789
  3417.1	  2797
  3417.2	  2806
  3417.3	  2816
  3417.4	  2826
  3417.5	  2837
  3417.6	  2846
  3417.7	  2855
  3417.8	  2863
  3417.9	  2873
  3418.0	  2883
  3418.1	  2892
  3418.2	  2903
  3418.3	  2912
  3418.4	  2919
  3418.5	  2930
  3418.6	  2938
  3418.7	  2949
  3418.8	  2962
  3418.9	  2967
  3419.0	  2976
  3419.1	  2987
  3419.2	  2996
  3419.3	  3007
  3419.4	  3018
  3419.5	  3029
  3419.6	  3039
  3419.7	  3049
  3419.8	  3058
  3419.9	  3069
  3420.0	  3080
  3420.1	  3091
  3420.2	  3101
  3420.3	  3111
  3420.4	  3121
  3420.5	  3132
  3420.6	  3143
  3420.7	  3154
  3420.8	  3164
  3420.9	  3174
  3421.0	  3184
  3421.1	  3192
  3421.2	  3203
  3421.3	  3215
  3421.4	  3223
  3421.5	  3232
  3421.6	  3243
  3421.7	  3251
  3421.8	  3262
  3421.9	  3276
  3422.0	  3281
  3422.1	  3291
  3422.2	  3300
  3422.3	  3308
  3422.4	  3319
  3422.5	  3328
  3422.6	  3339
  3422.7	  3347
  3422.8	  3357
  3422.9	  3367
 3423.01	  3376
 3423.11	  3386
 3423.21	  3397
 3423.31	  3406
 3423.41	  3415
 3423.51	  3426
 3423.61	  3434
 3423.71	  3441
 3423.81	  3450
 3423.91	  3459
 3424.01	  3470
 3424.11	  3481
 3424.21	  3488
 3424.31	  3500
 3424.41	  3509
 3424.51	  3516
 3424.61	  3525
 3424.71	  3534
 3424.81	  3540
 3424.91	  3552
 3425.01	  3563
 3425.11	  3568
 3425.21	  3578
 3425.31	  3585
 3425.41	  3592
 3425.51	  3599
 3425.61	  3608
 3425.71	  3618
 3425.81	  3627
 3425.91	  3635
 3426.01	  3646
 3426.11	  3653
 3426.21	  3661
 3426.31	  3669
 3426.41	  3675
 3426.51	  3684
 3426.61	  3691
 3426.71	  3698
 3426.81	  3704
 3426.91	  3711
 3427.01	  3717
 3427.11	  3722
 3427.21	  3729
 3427.31	  3734
 3427.41	  3742
 3427.51	  3749
 3427.61	  3755
 3427.71	  3765
 3427.81	  3770
 3427.91	  3773
 3428.01	  3783
 3428.11	  3790
 3428.21	  3793
 3428.31	  3802
 3428.41	  3804
 3428.51	  3809
 3428.61	  3814
 3428.71	  3821
 3428.81	  3825
 3428.91	  3831
 3429.01	  3837
 3429.11	  3842
 3429.21	  3847
 3429.31	  3854
 3429.41	  3860
 3429.51	  3864
 3429.61	  3869
 3429.71	  3874
 3429.81	  3876
 3429.91	  3879
 3430.01	  3882
 3430.11	  3885
 3430.21	  3890
 3430.31	  3892
 3430.41	  3893
 3430.51	  3896
 3430.61	  3901
 3430.71	  3905
 3430.81	  3909
 3430.91	  3910
 3431.02	  3911
 3431.12	  3917
 3431.22	  3916
 3431.32	  3918
 3431.42	  3920
 3431.52	  3918
 3431.62	  3918
 3431.72	  3921
 3431.82	  3921
 3431.92	  3922
 3432.02	  3922
 3432.12	  3922
 3432.22	  3920
 3432.32	  3919
 3432.42	  3919
 3432.52	  3918
 3432.62	  3917
 3432.72	  3916
 3432.82	  3916
 3432.92	  3916
 3433.02	  3916
 3433.12	  3916
 3433.22	  3915
 3433.32	  3915
 3433.42	  3911
 3433.52	  3907
 3433.62	  3904
 3433.72	  3901
 3433.82	  3900
 3433.92	  3900
 3434.02	  3896
 3434.12	  3892
 3434.22	  3890
 3434.32	  3883
 3434.42	  3884
 3434.52	  3879
 3434.62	  3874
 3434.72	  3869
 3434.82	  3866
 3434.92	  3860
 3435.02	  3854
 3435.12	  3850
 3435.22	  3844
 3435.32	  3838
 3435.42	  3833
 3435.52	  3826
 3435.62	  3821
 3435.72	  3815
 3435.82	  3809
 3435.92	  3802
 3436.02	  3794
 3436.12	  3787
 3436.22	  3779
 3436.32	  3774
 3436.42	  3768
 3436.52	  3764
 3436.62	  3756
 3436.72	  3748
 3436.82	  3739
 3436.92	  3734
 3437.02	  3728
 3437.12	  3718
 3437.22	  3710
 3437.32	  3699
 3437.42	  3689
 3437.52	  3682
 3437.62	  3671
 3437.72	  3663
 3437.82	  3654
 3437.92	  3643
 3438.02	  3631
 3438.12	  3620
 3438.22	  3609
 3438.32	  3598
 3438.42	  3588
 3438.52	  3580
 3438.62	  3569
 3438.72	  3559
 3438.82	  3549
 3438.92	  3538
 3439.03	  3525
 3439.13	  3513
 3439.23	  3500
 3439.33	  3487
 3439.43	  3477
 3439.53	  3466
 3439.63	  3454
 3439.73	  3444
 3439.83	  3431
 3439.93	  3418
 3440.03	  3407
 3440.13	  3394
 3440.23	  3385
 3440.33	  3378
 3440.43	  3363
 3440.53	  3350
 3440.63	  3339
 3440.73	  3324
 3440.83	  3313
 3440.93	  3299
 3441.03	  3285
 3441.13	  3271
 3441.23	  3258
 3441.33	  3246
 3441.43	  3232
 3441.53	  3219
 3441.63	  3207
 3441.73	  3190
 3441.83	  3175
 3441.93	  3161
 3442.03	  3146
 3442.13	  3130
 3442.23	  3117
 3442.33	  3101
 3442.43	  3084
 3442.53	  3068
 3442.63	  3051
 3442.73	  3037
 3442.83	  3023
 3442.93	  3007
 3443.03	  2991
 3443.13	  2977
 3443.23	  2960
 3443.33	  2947
 3443.43	  2937
 3443.53	  2917
 3443.63	  2903
 3443.73	  2884
 3443.83	  2866
 3443.93	  2852
 3444.03	  2835
 3444.13	  2819
 3444.23	  2802
 3444.33	  2786
 3444.43	  2771
 3444.53	  2755
 3444.63	  2740
 3444.73	  2725
 3444.83	  2709
 3444.93	  2694
 3445.03	  2679
 3445.13	  2664
 3445.23	  2649
 3445.33	  2634
 3445.43	  2617
 3445.53	  2603
 3445.63	  2589
 3445.73	  2572
 3445.83	  2557
 3445.93	  2544
 3446.03	  2527
 3446.13	  2510
 3446.23	  2494
 3446.33	  2474
 3446.43	  2463
 3446.53	  2453
 3446.63	  2435
 3446.73	  2422
 3446.83	  2404
 3446.93	  2388
 3447.04	  2374
 3447.14	  2357
 3447.24	  2342
 3447.34	  2327
 3447.44	  2311
 3447.54	  2296
 3447.64	  2281
 3447.74	  2266
 3447.84	  2251
 3447.94	  2236
 3448.04	  2221
 3448.14	  2205
 3448.24	  2190
 3448.34	  2176
 3448.44	  2162
 3448.54	  2147
 3448.64	  2135
 3448.74	  2121
 3448.84	  2104
 3448.94	  2091
 3449.04	  2079
 3449.14	  2063
 3449.24	  2052
 3449.34	  2038
 3449.44	  2021
 3449.54	  2013
 3449.64	  2000
 3449.74	  1986
 3449.84	  1975
 3449.94	  1959
 3450.04	  1946
 3450.14	  1934
 3450.24	  1921
 3450.34	  1907
 3450.44	  1895
 3450.54	  1882
 3450.64	  1868
 3450.74	  1855
 3450.84	  1841
 3450.94	  1828
 3451.04	  1816
 3451.14	  1804
 3451.24	  1792
 3451.34	  1779
 3451.44	  1767
 3451.54	  1755
 3451.64	  1743
 3451.74	  1732
 3451.84	  1720
 3451.94	  1707
 3452.04	  1696
 3452.14	  1684
 3452.24	  1673
 3452.34	  1664
 3452.44	  1651
 3452.54	  1636
 3452.64	  1628
 3452.74	  1614
 3452.84	  1606
 3452.94	  1596
 3453.04	  1584
 3453.14	  1573
 3453.24	  1563
 3453.34	  1552
 3453.44	  1542
 3453.54	  1532
 3453.64	  1523
 3453.74	  1514
 3453.84	  1505
 3453.94	  1497
 3454.04	  1487
 3454.14	  1479
 3454.24	  1469
 3454.34	  1460
 3454.44	  1452
 3454.54	  1443
 3454.64	  1433
 3454.74	  1426
 3454.84	  1418
 3454.94	  1409
 3455.05	  1400
 3455.15	  1391
 3455.25	  1381
 3455.35	  1374
 3455.45	  1368
 3455.55	  1358
 3455.65	  1350
 3455.75	  1342
 3455.85	  1331
 3455.95	  1326
 3456.05	  1318
 3456.15	  1311
 3456.25	  1302
 3456.35	  1294
 3456.45	  1286
 3456.55	  1277
 3456.65	  1270
 3456.75	  1263
 3456.85	  1255
 3456.95	  1249
 3457.05	  1242
 3457.15	  1234
 3457.25	  1227
 3457.35	  1220
 3457.45	  1214
 3457.55	  1209
 3457.65	  1201
 3457.75	  1195
 3457.85	  1191
 3457.95	  1186
 3458.05	  1180
 3458.15	  1175
 3458.25	  1167
 3458.35	  1159
 3458.45	  1156
 3458.55	  1152
 3458.65	  1145
 3458.75	  1142
 3458.85	  1134
 3458.95	  1126
 3459.05	  1124
 3459.15	  1116
 3459.25	  1114
 3459.35	  1107
 3459.45	  1103
 3459.55	  1098
 3459.65	  1092
 3459.75	  1089
 3459.85	  1085
 3459.95	  1080
 3460.05	  1076
 3460.15	  1072
 3460.25	  1067
 3460.35	  1063
 3460.45	  1058
 3460.55	  1054
 3460.65	  1051
 3460.75	  1046
 3460.85	  1041
 3460.95	  1039
 3461.05	  1035
 3461.15	  1031
 3461.25	  1028
 3461.35	  1022
 3461.45	  1018
 3461.55	  1018
 3461.65	  1013
 3461.75	  1010
 3461.85	  1012
 3461.95	  1004
 3462.05	  1001
 3462.15	   997
 3462.25	   992
 3462.35	   990
 3462.45	   986
 3462.55	   982
 3462.65	   979
 3462.75	   976
 3462.85	   973
 3462.95	   972
 3463.06	   968
 3463.16	   965
 3463.26	   963
 3463.36	   961
 3463.46	   960
 3463.56	   958
 3463.66	   956
 3463.76	   955
 3463.86	   952
 3463.96	   949
 3464.06	   947
 3464.16	   944
 3464.26	   943
 3464.36	   943
 3464.46	   939
 3464.56	   938
 3464.66	   939
 3464.76	   935
 3464.86	   938
 3464.96	   942
 3465.06	   937
 3465.16	   938
 3465.26	   934
 3465.36	   931
 3465.46	   930
 3465.56	   929
 3465.66	   927
 3465.76	   926
 3465.86	   924
 3465.96	   923
 3466.06	   922
 3466.16	   921
 3466.26	   919
 3466.36	   919
 3466.46	   919
 3466.56	   918
 3466.66	   917
 3466.76	   916
 3466.86	   917
 3466.96	   915
 3467.06	   914
 3467.16	   912
 3467.26	   909
 3467.36	   908
 3467.46	   909
 3467.56	   907
 3467.66	   908
 3467.76	   908
 3467.86	   905
 3467.96	   909
 3468.06	   911
 3468.16	   909
 3468.26	   912
 3468.36	   909
 3468.46	   910
 3468.56	   909
 3468.66	   909
 3468.76	   909
 3468.86	   909
 3468.96	   910
 3469.06	   911
 3469.16	   911
 3469.26	   912
 3469.36	   912
 3469.46	   914
 3469.56	   915
 3469.66	   914
 3469.76	   914
 3469.86	   914
 3469.96	   914
 3470.06	   913
 3470.16	   914
 3470.26	   913
 3470.36	   912
 3470.46	   912
 3470.56	   912
 3470.66	   913
 3470.76	   914
 3470.86	   912
 3470.96	   909
 3471.07	   914
 3471.17	   914
 3471.27	   916
 3471.37	   919
 3471.47	   919
 3471.57	   919
 3471.67	   920
 3471.77	   921
 3471.87	   921
 3471.97	   922
 3472.07	   923
 3472.17	   924
 3472.27	   925
 3472.37	   926
 3472.47	   926
 3472.57	   927
 3472.67	   928
 3472.77	   929
 3472.87	   930
 3472.97	   931
 3473.07	   931
 3473.17	   934
 3473.27	   935
 3473.37	   934
 3473.47	   935
 3473.57	   936
 3473.67	   936
 3473.77	   939
 3473.87	   942
 3473.97	   941
 3474.07	   942
 3474.17	   942
 3474.27	   938
 3474.37	   943
 3474.47	   944
 3474.57	   946
 3474.67	   948
 3474.77	   948
 3474.87	   948
 3474.97	   948
 3475.07	   948
 3475.17	   950
 3475.27	   952
 3475.37	   954
 3475.47	   957
 3475.57	   958
 3475.67	   960
 3475.77	   962
 3475.87	   964
 3475.97	   965
 3476.07	   967
 3476.17	   966
 3476.27	   968
 3476.37	   970
 3476.47	   970
 3476.57	   973
 3476.67	   975
 3476.77	   975
 3476.87	   980
 3476.97	   982
 3477.07	   982
 3477.17	   987
 3477.27	   986
 3477.37	   985
 3477.47	   990
 3477.57	   989
 3477.67	   992
 3477.77	   994
 3477.87	   996
 3477.97	   997
 3478.07	   999
 3478.17	  1001
 3478.27	  1002
 3478.37	  1005
 3478.47	  1006
 3478.57	  1007
 3478.67	  1008
 3478.77	  1009
 3478.87	  1012
 3478.97	  1013
 3479.08	  1015
 3479.18	  1017
 3479.28	  1018
 3479.38	  1022
 3479.48	  1025
 3479.58	  1028
 3479.68	  1031
 3479.78	  1031
 3479.88	  1032
 3479.98	  1036
 3480.08	  1036
 3480.18	  1038
 3480.28	  1046
 3480.38	  1042
 3480.48	  1043
 3480.58	  1045
 3480.68	  1046
 3480.78	  1049
 3480.88	  1052
 3480.98	  1054
 3481.08	  1056
 3481.18	  1057
 3481.28	  1060
 3481.38	  1062
 3481.48	  1063
 3481.58	  1065
 3481.68	  1067
 3481.78	  1068
 3481.88	  1069
 3481.98	  1071
 3482.08	  1073
 3482.18	  1076
 3482.28	  1078
 3482.38	  1080
 3482.48	  1083
 3482.58	  1085
 3482.68	  1089
 3482.78	  1093
 3482.88	  1093
 3482.98	  1094
 3483.08	  1097
 3483.18	  1095
 3483.28	  1100
 3483.38	  1106
 3483.48	  1103
 3483.58	  1108
 3483.68	  1108
 3483.78	  1109
 3483.88	  1112
 3483.98	  1114
 3484.08	  1116
 3484.18	  1117
 3484.28	  1119
 3484.38	  1120
 3484.48	  1122
 3484.58	  1125
 3484.68	  1127
 3484.78	  1130
 3484.88	  1133
 3484.98	  1134
 3485.08	  1137
 3485.18	  1139
 3485.28	  1142
 3485.38	  1145
 3485.48	  1147
 3485.58	  1150
 3485.68	  1151
 3485.78	  1154
 3485.88	  1158
 3485.98	  1157
 3486.08	  1159
 3486.18	  1159
 3486.28	  1156
 3486.38	  1162
 3486.48	  1165
 3486.58	  1165
 3486.68	  1170
 3486.78	  1168
 3486.88	  1170
 3486.98	  1172
 3487.09	  1175
 3487.19	  1177
 3487.29	  1180
 3487.39	  1183
 3487.49	  1185
 3487.59	  1187
 3487.69	  1190
 3487.79	  1193
 3487.89	  1196
 3487.99	  1200
 3488.09	  1202
 3488.19	  1204
 3488.29	  1206
 3488.39	  1208
 3488.49	  1210
 3488.59	  1214
 3488.69	  1216
 3488.79	  1218
 3488.89	  1221
 3488.99	  1224
 3489.09	  1227
 3489.19	  1231
 3489.29	  1232
 3489.39	  1231
 3489.49	  1236
 3489.59	  1237
 3489.69	  1241
 3489.79	  1244
 3489.89	  1245
 3489.99	  1247
 3490.09	  1248
 3490.19	  1250
 3490.29	  1252
 3490.39	  1254
 3490.49	  1256
 3490.59	  1257
 3490.69	  1259
 3490.79	  1262
 3490.89	  1263
 3490.99	  1268
 3491.09	  1272
 3491.19	  1275
 3491.29	  1277
 3491.39	  1280
 3491.49	  1282
 3491.59	  1284
 3491.69	  1287
 3491.79	  1288
 3491.89	  1290
 3491.99	  1293
 3492.09	  1295
 3492.19	  1299
 3492.29	  1304
 3492.39	  1304
 3492.49	  1307
 3492.59	  1309
 3492.69	  1309
 3492.79	  1315
 3492.89	  1317
 3492.99	  1320
 3493.09	  1323
 3493.19	  1325
 3493.29	  1328
 3493.39	  1330
 3493.49	  1333
 3493.59	  1335
 3493.69	  1338
 3493.79	  1340
 3493.89	  1343
 3493.99	  1347
 3494.09	  1351
 3494.19	  1354
 3494.29	  1357
 3494.39	  1361
 3494.49	  1364
 3494.59	  1366
 3494.69	  1371
 3494.79	  1375
 3494.89	  1378
 3494.99	  1381
  3495.1	  1382
  3495.2	  1381
  3495.3	  1385
  3495.4	  1389
  3495.5	  1391
  3495.6	  1396
  3495.7	  1396
  3495.8	  1396
  3495.9	  1402
  3496.0	  1402
  3496.1	  1406
  3496.2	  1409
  3496.3	  1411
  3496.4	  1414
  3496.5	  1417
  3496.6	  1421
  3496.7	  1425
  3496.8	  1428
  3496.9	  1432
  3497.0	  1434
  3497.1	  1436
  3497.2	  1439
  3497.3	  1442
  3497.4	  1445
  3497.5	  1448
  3497.6	  1450
  3497.7	  1452
  3497.8	  1455
  3497.9	  1459
  3498.0	  1462
  3498.1	  1467
  3498.2	  1469
  3498.3	  1471
  3498.4	  1475
  3498.5	  1477
  3498.6	  1483
  3498.7	  1491
  3498.8	  1490
  3498.9	  1494
  3499.0	  1496
  3499.1	  1497
  3499.2	  1502
  3499.3	  1504
  3499.4	  1507
  3499.5	  1509
  3499.6	  1511
  3499.7	  1514
  3499.8	  1517
  3499.9	  1520
  3500.0	  1524
  3500.1	  1528
  3500.2	  1533
  3500.3	  1537
  3500.4	  1542
  3500.5	  1546
  3500.6	  1551
  3500.7	  1553
  3500.8	  1557
  3500.9	  1560
  3501.0	  1562
  3501.1	  1567
  3501.2	  1572
  3501.3	  1575
  3501.4	  1577
  3501.5	  1581
  3501.6	  1582
  3501.7	  1590
  3501.8	  1597
  3501.9	  1597
  3502.0	  1602
  3502.1	  1603
  3502.2	  1607
  3502.3	  1610
  3502.4	  1615
  3502.5	  1621
  3502.6	  1626
  3502.7	  1631
  3502.8	  1635
  3502.9	  1639
 3503.01	  1644
 3503.11	  1647
 3503.21	  1650
 3503.31	  1654
 3503.41	  1657
 3503.51	  1661
 3503.61	  1665
 3503.71	  1670
 3503.81	  1674
 3503.91	  1679
 3504.01	  1683
 3504.11	  1684
 3504.21	  1690
 3504.31	  1696
 3504.41	  1699
 3504.51	  1704
 3504.61	  1707
 3504.71	  1708
 3504.81	  1715
 3504.91	  1720
 3505.01	  1723
 3505.11	  1730
 3505.21	  1732
 3505.31	  1736
 3505.41	  1741
 3505.51	  1745
 3505.61	  1750
 3505.71	  1754
 3505.81	  1759
 3505.91	  1764
 3506.01	  1769
 3506.11	  1773
 3506.21	  1778
 3506.31	  1782
 3506.41	  1788
 3506.51	  1792
 3506.61	  1797
 3506.71	  1803
 3506.81	  1807
 3506.91	  1813
 3507.01	  1819
 3507.11	  1822
 3507.21	  1826
 3507.31	  1831
 3507.41	  1836
 3507.51	  1841
 3507.61	  1849
 3507.71	  1853
 3507.81	  1855
 3507.91	  1862
 3508.01	  1864
 3508.11	  1872
 3508.21	  1878
 3508.31	  1882
 3508.41	  1888
 3508.51	  1893
 3508.61	  1899
 3508.71	  1903
 3508.81	  1908
 3508.91	  1913
 3509.01	  1918
 3509.11	  1923
 3509.21	  1929
 3509.31	  1933
 3509.41	  1939
 3509.51	  1944
 3509.61	  1950
 3509.71	  1955
 3509.81	  1961
 3509.91	  1965
 3510.01	  1971
 3510.11	  1978
 3510.21	  1981
 3510.31	  1987
 3510.41	  1992
 3510.51	  1997
 3510.61	  2004
 3510.71	  2013
 3510.81	  2017
 3510.91	  2025
 3511.02	  2031
 3511.12	  2033
 3511.22	  2042
 3511.32	  2046
 3511.42	  2054
 3511.52	  2059
 3511.62	  2065
 3511.72	  2070
 3511.82	  2077
 3511.92	  2082
 3512.02	  2089
 3512.12	  2096
 3512.22	  2103
 3512.32	  2108
 3512.42	  2114
 3512.52	  2121
 3512.62	  2128
 3512.72	  2136
 3512.82	  2143
 3512.92	  2150
 3513.02	  2155
 3513.12	  2163
 3513.22	  2170
 3513.32	  2176
 3513.42	  2185
 3513.52	  2191
 3513.62	  2195
 3513.72	  2203
 3513.82	  2209
 3513.92	  2214
 3514.02	  2225
 3514.12	  2229
 3514.22	  2233
 3514.32	  2242
 3514.42	  2247
 3514.52	  2256
 3514.62	  2263
 3514.72	  2269
 3514.82	  2277
 3514.92	  2284
 3515.02	  2291
 3515.12	  2299
 3515.22	  2307
 3515.32	  2314
 3515.42	  2321
 3515.52	  2328
 3515.62	  2335
 3515.72	  2342
 3515.82	  2350
 3515.92	  2357
 3516.02	  2364
 3516.12	  2371
 3516.22	  2379
 3516.32	  2385
 3516.42	  2394
 3516.52	  2404
 3516.62	  2410
 3516.72	  2416
 3516.82	  2425
 3516.92	  2431
 3517.02	  2440
 3517.12	  2452
 3517.22	  2456
 3517.32	  2465
 3517.42	  2472
 3517.52	  2480
 3517.62	  2489
 3517.72	  2497
 3517.82	  2507
 3517.92	  2515
 3518.02	  2523
 3518.12	  2531
 3518.22	  2540
 3518.32	  2548
 3518.42	  2557
 3518.52	  2566
 3518.62	  2574
 3518.72	  2583
 3518.82	  2591
 3518.92	  2601
 3519.03	  2611
 3519.13	  2618
 3519.23	  2626
 3519.33	  2634
 3519.43	  2640
 3519.53	  2650
 3519.63	  2660
 3519.73	  2668
 3519.83	  2676
 3519.93	  2684
 3520.03	  2689
 3520.13	  2702
 3520.23	  2714
 3520.33	  2719
 3520.43	  2731
 3520.53	  2738
 3520.63	  2749
 3520.73	  2757
 3520.83	  2766
 3520.93	  2775
 3521.03	  2783
 3521.13	  2791
 3521.23	  2800
 3521.33	  2808
 3521.43	  2818
 3521.53	  2827
 3521.63	  2837
 3521.73	  2847
 3521.83	  2856
 3521.93	  2866
 3522.03	  2876
 3522.13	  2886
 3522.23	  2895
 3522.33	  2906
 3522.43	  2913
 3522.53	  2920
 3522.63	  2930
 3522.73	  2939
 3522.83	  2947
 3522.93	  2958
 3523.03	  2965
 3523.13	  2970
 3523.23	  2983
 3523.33	  2990
 3523.43	  2999
 3523.53	  3010
 3523.63	  3018
 3523.73	  3027
 3523.83	  3037
 3523.93	  3047
 3524.03	  3058
 3524.13	  3067
 3524.23	  3078
 3524.33	  3088
 3524.43	  3096
 3524.53	  3106
 3524.63	  3115
 3524.73	  3125
 3524.83	  3134
 3524.93	  3143
 3525.03	  3151
 3525.13	  3161
 3525.23	  3169
 3525.33	  3178
 3525.43	  3187
 3525.53	  3195
 3525.63	  3203
 3525.73	  3213
 3525.83	  3220
 3525.93	  3231
 3526.03	  3244
 3526.13	  3250
 3526.23	  3258
 3526.33	  3269
 3526.43	  3275
 3526.53	  3289
 3526.63	  3298
 3526.73	  3308
 3526.83	  3317
 3526.93	  3326
 3527.04	  3336
 3527.14	  3345
 3527.24	  3355
 3527.34	  3364
 3527.44	  3373
 3527.54	  3380
 3527.64	  3389
 3527.74	  3398
 3527.84	  3406
 3527.94	  3414
 3528.04	  3423
 3528.14	  3431
 3528.24	  3439
 3528.34	  3444
 3528.44	  3453
 3528.54	  3462
 3528.64	  3470
 3528.74	  3478
 3528.84	  3485
 3528.94	  3491
 3529.04	  3501
 3529.14	  3512
 3529.24	  3519
 3529.34	  3530
 3529.44	  3538
 3529.54	  3542
 3529.64	  3552
 3529.74	  3558
 3529.84	  3566
 3529.94	  3573
 3530.04	  3581
 3530.14	  3587
 3530.24	  3594
 3530.34	  3602
 3530.44	  3608
 3530.54	  3615
 3530.64	  3623
 3530.74	  3631
 3530.84	  3638
 3530.94	  3645
 3531.04	  3651
 3531.14	  3659
 3531.24	  3665
 3531.34	  3671
 3531.44	  3677
 3531.54	  3683
 3531.64	  3689
 3531.74	  3697
 3531.84	  3706
 3531.94	  3713
 3532.04	  3718
 3532.14	  3725
 3532.24	  3731
 3532.34	  3738
 3532.44	  3749
 3532.54	  3749
 3532.64	  3755
 3532.74	  3761
 3532.84	  3766
 3532.94	  3771
 3533.04	  3775
 3533.14	  3781
 3533.24	  3786
 3533.34	  3789
 3533.44	  3793
 3533.54	  3797
 3533.64	  3801
 3533.74	  3806
 3533.84	  3809
 3533.94	  3814
 3534.04	  3820
 3534.14	  3824
 3534.24	  3828
 3534.34	  3833
 3534.44	  3836
 3534.54	  3842
 3534.64	  3843
 3534.74	  3844
 3534.84	  3848
 3534.94	  3852
 3535.05	  3853
 3535.15	  3855
 3535.25	  3857
 3535.35	  3855
 3535.45	  3862
 3535.55	  3868
 3535.65	  3864
 3535.75	  3868
 3535.85	  3868
 3535.95	  3867
 3536.05	  3869
 3536.15	  3872
 3536.25	  3876
 3536.35	  3876
 3536.45	  3877
 3536.55	  3877
 3536.65	  3876
 3536.75	  3879
 3536.85	  3880
 3536.95	  3881
 3537.05	  3882
 3537.15	  3882
 3537.25	  3881
 3537.35	  3880
 3537.45	  3880
 3537.55	  3880
 3537.65	  3879
 3537.75	  3877
 3537.85	  3873
 3537.95	  3873
 3538.05	  3869
 3538.15	  3865
 3538.25	  3866
 3538.35	  3861
 3538.45	  3855
 3538.55	  3857
 3538.65	  3855
 3538.75	  3851
 3538.85	  3852
 3538.95	  3846
 3539.05	  3843
 3539.15	  3840
 3539.25	  3838
 3539.35	  3835
 3539.45	  3832
 3539.55	  3830
 3539.65	  3827
 3539.75	  3822
 3539.85	  3817
 3539.95	  3812
 3540.05	  3807
 3540.15	  3801
 3540.25	  3796
 3540.35	  3789
 3540.45	  3784
 3540.55	  3778
 3540.65	  3771
 3540.75	  3765
 3540.85	  3757
 3540.95	  3751
 3541.05	  3747
 3541.15	  3740
 3541.25	  3735
 3541.35	  3732
 3541.45	  3723
 3541.55	  3715
 3541.65	  3712
 3541.75	  3701
 3541.85	  3696
 3541.95	  3692
 3542.05	  3683
 3542.15	  3676
 3542.25	  3669
 3542.35	  3660
 3542.45	  3652
 3542.55	  3643
 3542.65	  3635
 3542.75	  3626
 3542.85	  3617
 3542.95	  3611
 3543.06	  3602
 3543.16	  3593
 3543.26	  3584
 3543.36	  3577
 3543.46	  3567
 3543.56	  3558
 3543.66	  3547
 3543.76	  3537
 3543.86	  3529
 3543.96	  3519
 3544.06	  3510
 3544.16	  3499
 3544.26	  3487
 3544.36	  3478
 3544.46	  3468
 3544.56	  3455
 3544.66	  3444
 3544.76	  3431
 3544.86	  3416
 3544.96	  3408
 3545.06	  3396
 3545.16	  3385
 3545.26	  3371
 3545.36	  3360
 3545.46	  3346
 3545.56	  3334
 3545.66	  3322
 3545.76	  3310
 3545.86	  3299
 3545.96	  3288
 3546.06	  3275
 3546.16	  3262
 3546.26	  3250
 3546.36	  3237
 3546.46	  3225
 3546.56	  3213
 3546.66	  3201
 3546.76	  3188
 3546.86	  3174
 3546.96	  3160
 3547.06	  3148
 3547.16	  3137
 3547.26	  3123
 3547.36	  3110
 3547.46	  3099
 3547.56	  3086
 3547.66	  3074
 3547.76	  3065
 3547.86	  3048
 3547.96	  3032
 3548.06	  3019
 3548.16	  3004
 3548.26	  2992
 3548.36	  2978
 3548.46	  2966
 3548.56	  2952
 3548.66	  2938
 3548.76	  2926
 3548.86	  2913
 3548.96	  2899
 3549.06	  2886
 3549.16	  2872
 3549.26	  2858
 3549.36	  2843
 3549.46	  2828
 3549.56	  2813
 3549.66	  2801
 3549.76	  2786
 3549.86	  2771
 3549.96	  2757
 3550.06	  2741
 3550.16	  2727
 3550.26	  2713
 3550.36	  2697
 3550.46	  2681
 3550.56	  2668
 3550.66	  2652
 3550.76	  2642
 3550.86	  2633
 3550.96	  2614
 3551.07	  2602
 3551.17	  2586
 3551.27	  2571
 3551.37	  2557
 3551.47	  2542
 3551.57	  2528
 3551.67	  2513
 3551.77	  2499
 3551.87	  2486
 3551.97	  2472
 3552.07	  2460
 3552.17	  2447
 3552.27	  2431
 3552.37	  2418
 3552.47	  2406
 3552.57	  2393
 3552.67	  2379
 3552.77	  2366
 3552.87	  2352
 3552.97	  2339
 3553.07	  2326
 3553.17	  2311
 3553.27	  2298
 3553.37	  2287
 3553.47	  2273
 3553.57	  2261
 3553.67	  2246
 3553.77	  2229
 3553.87	  2220
 3553.97	  2206
 3554.07	  2193
 3554.17	  2183
 3554.27	  2167
 3554.37	  2154
 3554.47	  2141
 3554.57	  2128
 3554.67	  2115
 3554.77	  2101
 3554.87	  2088
 3554.97	  2075
 3555.07	  2063
 3555.17	  2050
 3555.27	  2037
 3555.37	  2025
 3555.47	  2014
 3555.57	  2002
 3555.67	  1989
 3555.77	  1977
 3555.87	  1966
 3555.97	  1954
 3556.07	  1946
 3556.17	  1934
 3556.27	  1922
 3556.37	  1912
 3556.47	  1902
 3556.57	  1891
 3556.67	  1882
 3556.77	  1869
 3556.87	  1855
 3556.97	  1846
 3557.07	  1833
 3557.17	  1825
 3557.27	  1815
 3557.37	  1804
 3557.47	  1794
 3557.57	  1784
 3557.67	  1775
 3557.77	  1764
 3557.87	  1755
 3557.97	  1745
 3558.07	  1734
 3558.17	  1724
 3558.27	  1714
 3558.37	  1702
 3558.47	  1692
 3558.57	  1682
 3558.67	  1672
 3558.77	  1662
 3558.87	  1653
 3558.97	  1642
 3559.08	  1632
 3559.18	  1623
 3559.28	  1612
 3559.38	  1603
 3559.48	  1593
 3559.58	  1583
 3559.68	  1576
 3559.78	  1569
 3559.88	  1558
 3559.98	  1551
 3560.08	  1542
 3560.18	  1530
 3560.28	  1525
 3560.38	  1517
 3560.48	  1511
 3560.58	  1503
 3560.68	  1497
 3560.78	  1489
 3560.88	  1481
 3560.98	  1474
 3561.08	  1465
 3561.18	  1458
 3561.28	  1451
 3561.38	  1443
 3561.48	  1436
 3561.58	  1429
 3561.68	  1422
 3561.78	  1414
 3561.88	  1408
 3561.98	  1401
 3562.08	  1393
 3562.18	  1388
 3562.28	  1382
 3562.38	  1377
 3562.48	  1372
 3562.58	  1364
 3562.68	  1355
 3562.78	  1349
 3562.88	  1341
 3562.98	  1336
 3563.08	  1335
 3563.18	  1325
 3563.28	  1319
 3563.38	  1314
 3563.48	  1306
 3563.58	  1301
 3563.68	  1294
 3563.78	  1289
 3563.88	  1283
 3563.98	  1277
 3564.08	  1271
 3564.18	  1264
 3564.28	  1258
 3564.38	  1253
 3564.48	  1247
 3564.58	  1241
 3564.68	  1236
 3564.78	  1231
 3564.88	  1227
 3564.98	  1223
 3565.08	  1218
 3565.18	  1214
 3565.28	  1209
 3565.38	  1203
 3565.48	  1198
 3565.58	  1196
 3565.68	  1189
 3565.78	  1185
 3565.88	  1181
 3565.98	  1175
 3566.08	  1176
 3566.18	  1175
 3566.28	  1167
 3566.38	  1166
 3566.48	  1158
 3566.58	  1155
 3566.68	  1151
 3566.78	  1147
 3566.88	  1143
 3566.98	  1139
 3567.09	  1135
 3567.19	  1132
 3567.29	  1129
 3567.39	  1127
 3567.49	  1125
 3567.59	  1122
 3567.69	  1120
 3567.79	  1118
 3567.89	  1115
 3567.99	  1113
 3568.09	  1112
 3568.19	  1109
 3568.29	  1107
 3568.39	  1103
 3568.49	  1099
 3568.59	  1097
 3568.69	  1095
 3568.79	  1090
 3568.89	  1087
 3568.99	  1082
 3569.09	  1075
 3569.19	  1076
 3569.29	  1073
 3569.39	  1072
 3569.49	  1073
 3569.59	  1069
 3569.69	  1067
 3569.79	  1065
 3569.89	  1063
 3569.99	  1061
 3570.09	  1060
 3570.19	  1058
 3570.29	  1056
 3570.39	  1053
 3570.49	  1052
 3570.59	  1051
 3570.69	  1050
 3570.79	  1049
 3570.89	  1047
 3570.99	  1045
 3571.09	  1043
 3571.19	  1040
 3571.29	  1038
 3571.39	  1037
 3571.49	  1036
 3571.59	  1034
 3571.69	  1033
 3571.79	  1031
 3571.89	  1031
 3571.99	  1033
 3572.09	  1029
 3572.19	  1027
 3572.29	  1027
 3572.39	  1022
 3572.49	  1025
 3572.59	  1024
 3572.69	  1024
 3572.79	  1024
 3572.89	  1022
 3572.99	  1020
 3573.09	  1019
 3573.19	  1019
 3573.29	  1017
 3573.39	  1016
 3573.49	  1017
 3573.59	  1017
 3573.69	  1016
 3573.79	  1016
 3573.89	  1017
 3573.99	  1016
 3574.09	  1017
 3574.19	  1017
 3574.29	  1016
 3574.39	  1018
 3574.49	  1017
 3574.59	  1015
 3574.69	  1015
 3574.79	  1012
 3574.89	  1009
 3574.99	  1011
  3575.1	  1012
  3575.2	  1012
  3575.3	  1014
  3575.4	  1011
  3575.5	  1009
  3575.6	  1012
  3575.7	  1012
  3575.8	  1014
  3575.9	  1015
  3576.0	  1015
  3576.1	  1015
  3576.2	  1015
  3576.3	  1015
  3576.4	  1014
  3576.5	  1013
  3576.6	  1013
  3576.7	  1012
  3576.8	  1011
  3576.9	  1012
  3577.0	  1011
  3577.1	  1012
  3577.2	  1014
  3577.3	  1014
  3577.4	  1014
  3577.5	  1015
  3577.6	  1013
  3577.7	  1015
  3577.8	  1018
  3577.9	  1016
  3578.0	  1015
  3578.1	  1017
  3578.2	  1016
  3578.3	  1019
  3578.4	  1025
  3578.5	  1020
  3578.6	  1021
  3578.7	  1020
  3578.8	  1019
  3578.9	  1021
  3579.0	  1024
  3579.1	  1026
  3579.2	  1027
  3579.3	  1028
  3579.4	  1029
  3579.5	  1030
  3579.6	  1031
  3579.7	  1032
  3579.8	  1033
  3579.9	  1033
  3580.0	  1034
  3580.1	  1035
  3580.2	  1035
  3580.3	  1037
  3580.4	  1036
  3580.5	  1037
  3580.6	  1038
  3580.7	  1037
  3580.8	  1039
  3580.9	  1041
  3581.0	  1040
  3581.1	  1042
  3581.2	  1044
  3581.3	  1041
  3581.4	  1046
  3581.5	  1049
  3581.6	  1046
  3581.7	  1050
  3581.8	  1048
  3581.9	  1050
  3582.0	  1051
  3582.1	  1052
  3582.2	  1054
  3582.3	  1055
  3582.4	  1056
  3582.5	  1057
  3582.6	  1058
  3582.7	  1059
  3582.8	  1060
  3582.9	  1061
 3583.01	  1062
 3583.11	  1061
 3583.21	  1061
 3583.31	  1062
 3583.41	  1064
 3583.51	  1064
 3583.61	  1066
 3583.71	  1066
 3583.81	  1066
 3583.91	  1068
 3584.01	  1070
 3584.11	  1071
 3584.21	  1074
 3584.31	  1073
 3584.41	  1071
 3584.51	  1076
 3584.61	  1074
 3584.71	  1076
 3584.81	  1078
 3584.91	  1078
 3585.01	  1080
 3585.11	  1082
 3585.21	  1083
 3585.31	  1084
 3585.41	  1087
 3585.51	  1088
 3585.61	  1091
 3585.71	  1092
 3585.81	  1094
 3585.91	  1094
 3586.01	  1096
 3586.11	  1098
 3586.21	  1099
 3586.31	  1100
 3586.41	  1101
 3586.51	  1101
 3586.61	  1104
 3586.71	  1106
 3586.81	  1108
 3586.91	  1110
 3587.01	  1111
 3587.11	  1112
 3587.21	  1116
 3587.31	  1120
 3587.41	  1119
 3587.51	  1121
 3587.61	  1122
 3587.71	  1120
 3587.81	  1124
 3587.91	  1124
 3588.01	  1127
 3588.11	  1129
 3588.21	  1130
 3588.31	  1131
 3588.41	  1132
 3588.51	  1132
 3588.61	  1133
 3588.71	  1133
 3588.81	  1136
 3588.91	  1137
 3589.01	  1138
 3589.11	  1139
 3589.21	  1141
 3589.31	  1144
 3589.41	  1147
 3589.51	  1148
 3589.61	  1148
 3589.71	  1150
 3589.81	  1150
 3589.91	  1151
 3590.01	  1154
 3590.11	  1154
 3590.21	  1153
 3590.31	  1155
 3590.41	  1155
 3590.51	  1159
 3590.61	  1165
 3590.71	  1161
 3590.81	  1162
 3590.91	  1163
 3591.02	  1162
 3591.12	  1165
 3591.22	  1167
 3591.32	  1168
 3591.42	  1170
 3591.52	  1171
 3591.62	  1174
 3591.72	  1176
 3591.82	  1178
 3591.92	  1180
 3592.02	  1181
 3592.12	  1183
 3592.22	  1184
 3592.32	  1186
 3592.42	  1187
 3592.52	  1190
 3592.62	  1191
 3592.72	  1192
 3592.82	  1193
 3592.92	  1191
 3593.02	  1193
 3593.12	  1197
 3593.22	  1195
 3593.32	  1196
 3593.42	  1198
 3593.52	  1196
 3593.62	  1200
 3593.72	  1205
 3593.82	  1202
 3593.92	  1207
 3594.02	  1206
 3594.12	  1207
 3594.22	  1210
 3594.32	  1212
 3594.42	  1214
 3594.52	  1215
 3594.62	  1216
 3594.72	  1217
 3594.82	  1218
 3594.92	  1219
 3595.02	  1220
 3595.12	  1221
 3595.22	  1223
 3595.32	  1223
 3595.42	  1224
 3595.52	  1225
 3595.62	  1227
 3595.72	  1226
 3595.82	  1227
 3595.92	  1228
 3596.02	  1228
 3596.12	  1232
 3596.22	  1235
 3596.32	  1235
 3596.42	  1238
 3596.52	  1238
 3596.62	  1236
 3596.72	  1241
 3596.82	  1242
 3596.92	  1243
 3597.02	  1246
 3597.12	  1245
 3597.22	  1245
 3597.32	  1247
 3597.42	  1249
 3597.52	  1250
 3597.62	  1253
 3597.72	  1255
 3597.82	  1256
 3597.92	  1257
 3598.02	  1258
 3598.12	  1259
 3598.22	  1262
 3598.32	  1263
 3598.42	  1264
 3598.52	  1265
 3598.62	  1266
 3598.72	  1266
 3598.82	  1267
 3598.92	  1270
 3599.03	  1270
 3599.13	  1271
 3599.23	  1274
 3599.33	  1275
 3599.43	  1278
 3599.53	  1281
 3599.63	  1279
 3599.73	  1278
 3599.83	  1280
 3599.93	  1277
 3600.03	  1282
 3600.13	  1282
 3600.23	  1284
 3600.33	  1285
 3600.43	  1287
 3600.53	  1288
 3600.63	  1289
 3600.73	  1291
 3600.83	  1293
 3600.93	  1293
 3601.03	  1294
 3601.13	  1294
 3601.23	  1296
 3601.33	  1299
 3601.43	  1300
 3601.53	  1301
 3601.63	  1303
 3601.73	  1304
 3601.83	  1305
 3601.93	  1307
 3602.03	  1308
 3602.13	  1309
 3602.23	  1312
 3602.33	  1313
 3602.43	  1311
 3602.53	  1314
 3602.63	  1317
 3602.73	  1318
 3602.83	  1322
 3602.93	  1320
 3603.03	  1319
 3603.13	  1322
 3603.23	  1321
 3603.33	  1323
 3603.43	  1323
 3603.53	  1325
 3603.63	  1326
 3603.73	  1327
 3603.83	  1329
 3603.93	  1331
 3604.03	  1332
 3604.13	  1332
 3604.23	  1332
 3604.33	  1333
 3604.43	  1334
 3604.53	  1335
 3604.63	  1335
 3604.73	  1337
 3604.83	  1337
 3604.93	  1337
 3605.03	  1338
 3605.13	  1338
 3605.23	  1339
 3605.33	  1342
 3605.43	  1341
 3605.53	  1341
 3605.63	  1344
 3605.73	  1343
 3605.83	  1347
 3605.93	  1354
 3606.03	  1350
 3606.13	  1353
 3606.23	  1352
 3606.33	  1353
 3606.43	  1355
 3606.53	  1355
 3606.63	  1357
 3606.73	  1358
 3606.83	  1360
 3606.93	  1361
 3607.04	  1363
 3607.14	  1365
 3607.24	  1365
 3607.34	  1366
 3607.44	  1367
 3607.54	  1369
 3607.64	  1370
 3607.74	  1371
 3607.84	  1374
 3607.94	  1374
 3608.04	  1376
 3608.14	  1377
 3608.24	  1375
 3608.34	  1377
 3608.44	  1380
 3608.54	  1379
 3608.64	  1382
 3608.74	  1382
 3608.84	  1379
 3608.94	  1384
 3609.04	  1386
 3609.14	  1386
 3609.24	  1389
 3609.34	  1387
 3609.44	  1388
 3609.54	  1387
 3609.64	  1388
 3609.74	  1388
 3609.84	  1388
 3609.94	  1390
 3610.04	  1391
 3610.14	  1392
 3610.24	  1392
 3610.34	  1393
