field,G intensity,a.u.
  3019.0	  2124
  3019.1	  2122
  3019.2	  2122
  3019.3	  2120
  3019.4	  2120
  3019.5	  2120
  3019.6	  2120
  3019.7	  2122
  3019.8	  2124
  3019.9	  2130
  3020.0	  2129
  3020.1	  2132
  3020.2	  2135
  3020.3	  2139
  3020.4	  2144
  3020.5	  2147
  3020.6	  2151
  3020.7	  2155
  3020.8	  2160
  3020.9	  2162
  3021.0	  2167
  3021.1	  2171
  3021.2	  2176
  3021.3	  2181
  3021.4	  2186
  3021.5	  2191
  3021.6	  2196
  3021.7	  2202
  3021.8	  2206
  3021.9	  2213
  3022.0	  2218
  3022.1	  2224
  3022.2	  2229
  3022.3	  2235
  3022.4	  2240
  3022.5	  2246
  3022.6	  2252
  3022.7	  2255
  3022.8	  2262
  3022.9	  2267
 3023.01	  2272
 3023.11	  2276
 3023.21	  2284
 3023.31	  2289
 3023.41	  2295
 3023.51	  2302
 3023.61	  2304
 3023.71	  2314
 3023.81	  2320
 3023.91	  2326
 3024.01	  2332
 3024.11	  2338
 3024.21	  2343
 3024.31	  2350
 3024.41	  2355
 3024.51	  2360
 3024.61	  2369
 3024.71	  2374
 3024.81	  2380
 3024.91	  2386
 3025.01	  2393
 3025.11	  2398
 3025.21	  2405
 3025.31	  2411
 3025.41	  2416
 3025.51	  2423
 3025.61	  2430
 3025.71	  2436
 3025.81	  2443
 3025.91	  2454
 3026.01	  2458
 3026.11	  2464
 3026.21	  2472
 3026.31	  2479
 3026.41	  2486
 3026.51	  2491
 3026.61	  2498
 3026.71	  2504
 3026.81	  2512
 3026.91	  2516
 3027.01	  2523
 3027.11	  2529
 3027.21	  2536
 3027.31	  2544
 3027.41	  2550
 3027.51	  2558
 3027.61	  2566
 3027.71	  2573
 3027.81	  2578
 3027.91	  2587
 3028.01	  2594
 3028.11	  2601
 3028.21	  2609
 3028.31	  2615
 3028.41	  2622
 3028.51	  2629
 3028.61	  2634
 3028.71	  2639
 3028.81	  2648
 3028.91	  2654
 3029.01	  2661
 3029.11	  2665
 3029.21	  2674
 3029.31	  2680
 3029.41	  2688
 3029.51	  2693
 3029.61	  2696
 3029.71	  2707
 3029.81	  2713
 3029.91	  2718
 3030.01	  2725
 3030.11	  2733
 3030.21	  2739
 3030.31	  2747
 3030.41	  2754
 3030.51	  2759
 3030.61	  2768
 3030.71	  2776
 3030.81	  2784
 3030.91	  2791
 3031.02	  2799
 3031.12	  2805
 3031.22	  2812
 3031.32	  2819
 3031.42	  2826
 3031.52	  2833
 3031.62	  2838
 3031.72	  2845
 3031.82	  2851
 3031.92	  2860
 3032.02	  2863
 3032.12	  2869
 3032.22	  2876
 3032.32	  2882
 3032.42	  2889
 3032.52	  2894
 3032.62	  2899
 3032.72	  2904
 3032.82	  2912
 3032.92	  2913
 3033.02	  2918
 3033.12	  2923
 3033.22	  2928
 3033.32	  2934
 3033.42	  2940
 3033.52	  2945
 3033.62	  2950
 3033.72	  2954
 3033.82	  2958
 3033.92	  2966
 3034.02	  2971
 3034.12	  2976
 3034.22	  2982
 3034.32	  2986
 3034.42	  2990
 3034.52	  2996
 3034.62	  3000
 3034.72	  3003
 3034.82	  3010
 3034.92	  3013
 3035.02	  3016
 3035.12	  3019
 3035.22	  3024
 3035.32	  3027
 3035.42	  3031
 3035.52	  3035
 3035.62	  3034
 3035.72	  3042
 3035.82	  3045
 3035.92	  3050
 3036.02	  3052
 3036.12	  3056
 3036.22	  3059
 3036.32	  3061
 3036.42	  3064
 3036.52	  3065
 3036.62	  3070
 3036.72	  3074
 3036.82	  3077
 3036.92	  3079
 3037.02	  3082
 3037.12	  3082
 3037.22	  3084
 3037.32	  3086
 3037.42	  3087
 3037.52	  3089
 3037.62	  3090
 3037.72	  3089
 3037.82	  3089
 3037.92	  3093
 3038.02	  3089
 3038.12	  3089
 3038.22	  3090
 3038.32	  3090
 3038.42	  3092
 3038.52	  3091
 3038.62	  3091
 3038.72	  3091
 3038.82	  3093
 3038.92	  3089
 3039.03	  3089
 3039.13	  3088
 3039.23	  3088
 3039.33	  3089
 3039.43	  3085
 3039.53	  3084
 3039.63	  3082
 3039.73	  3078
 3039.83	  3074
 3039.93	  3073
 3040.03	  3069
 3040.13	  3065
 3040.23	  3063
 3040.33	  3059
 3040.43	  3056
 3040.53	  3052
 3040.63	  3048
 3040.73	  3043
 3040.83	  3041
 3040.93	  3037
 3041.03	  3035
 3041.13	  3029
 3041.23	  3028
 3041.33	  3024
 3041.43	  3019
 3041.53	  3014
 3041.63	  3004
 3041.73	  3004
 3041.83	  2999
 3041.93	  2993
 3042.03	  2988
 3042.13	  2984
 3042.23	  2977
 3042.33	  2971
 3042.43	  2965
 3042.53	  2955
 3042.63	  2951
 3042.73	  2944
 3042.83	  2936
 3042.93	  2929
 3043.03	  2923
 3043.13	  2914
 3043.23	  2907
 3043.33	  2900
 3043.43	  2893
 3043.53	  2886
 3043.63	  2878
 3043.73	  2871
 3043.83	  2863
 3043.93	  2859
 3044.03	  2847
 3044.13	  2839
 3044.23	  2831
 3044.33	  2822
 3044.43	  2815
 3044.53	  2803
 3044.63	  2793
 3044.73	  2783
 3044.83	  2777
 3044.93	  2765
 3045.03	  2757
 3045.13	  2747
 3045.23	  2737
 3045.33	  2729
 3045.43	  2718
 3045.53	  2708
 3045.63	  2698
 3045.73	  2687
 3045.83	  2676
 3045.93	  2667
 3046.03	  2656
 3046.13	  2646
 3046.23	  2634
 3046.33	  2623
 3046.43	  2612
 3046.53	  2601
 3046.63	  2589
 3046.73	  2577
 3046.83	  2569
 3046.93	  2557
 3047.04	  2545
 3047.14	  2533
 3047.24	  2524
 3047.34	  2512
 3047.44	  2501
 3047.54	  2491
 3047.64	  2475
 3047.74	  2467
 3047.84	  2456
 3047.94	  2443
 3048.04	  2431
 3048.14	  2421
 3048.24	  2408
 3048.34	  2397
 3048.44	  2385
 3048.54	  2370
 3048.64	  2361
 3048.74	  2348
 3048.84	  2337
 3048.94	  2326
 3049.04	  2315
 3049.14	  2302
 3049.24	  2293
 3049.34	  2280
 3049.44	  2268
 3049.54	  2257
 3049.64	  2244
 3049.74	  2233
 3049.84	  2221
 3049.94	  2212
 3050.04	  2197
 3050.14	  2185
 3050.24	  2173
 3050.34	  2162
 3050.44	  2152
 3050.54	  2139
 3050.64	  2128
 3050.74	  2116
 3050.84	  2107
 3050.94	  2093
 3051.04	  2082
 3051.14	  2071
 3051.24	  2060
 3051.34	  2051
 3051.44	  2038
 3051.54	  2027
 3051.64	  2016
 3051.74	  2005
 3051.84	  1993
 3051.94	  1984
 3052.04	  1973
 3052.14	  1962
 3052.24	  1952
 3052.34	  1941
 3052.44	  1930
 3052.54	  1920
 3052.64	  1910
 3052.74	  1897
 3052.84	  1888
 3052.94	  1877
 3053.04	  1867
 3053.14	  1854
 3053.24	  1846
 3053.34	  1835
 3053.44	  1826
 3053.54	  1815
 3053.64	  1801
 3053.74	  1796
 3053.84	  1785
 3053.94	  1776
 3054.04	  1766
 3054.14	  1757
 3054.24	  1747
 3054.34	  1738
 3054.44	  1727
 3054.54	  1715
 3054.64	  1709
 3054.74	  1698
 3054.84	  1689
 3054.94	  1681
 3055.05	  1672
 3055.15	  1662
 3055.25	  1655
 3055.35	  1645
 3055.45	  1637
 3055.55	  1629
 3055.65	  1620
 3055.75	  1612
 3055.85	  1603
 3055.95	  1598
 3056.05	  1588
 3056.15	  1579
 3056.25	  1571
 3056.35	  1563
 3056.45	  1557
 3056.55	  1548
 3056.65	  1540
 3056.75	  1532
 3056.85	  1528
 3056.95	  1517
 3057.05	  1511
 3057.15	  1504
 3057.25	  1497
 3057.35	  1492
 3057.45	  1484
 3057.55	  1477
 3057.65	  1470
 3057.75	  1464
 3057.85	  1455
 3057.95	  1450
 3058.05	  1443
 3058.15	  1437
 3058.25	  1431
 3058.35	  1424
 3058.45	  1418
 3058.55	  1412
 3058.65	  1406
 3058.75	  1399
 3058.85	  1395
 3058.95	  1388
 3059.05	  1382
 3059.15	  1375
 3059.25	  1371
 3059.35	  1365
 3059.45	  1360
 3059.55	  1355
 3059.65	  1345
 3059.75	  1345
 3059.85	  1340
 3059.95	  1335
 3060.05	  1331
 3060.15	  1326
 3060.25	  1322
 3060.35	  1317
 3060.45	  1312
 3060.55	  1305
 3060.65	  1304
 3060.75	  1299
 3060.85	  1295
 3060.95	  1291
 3061.05	  1287
 3061.15	  1283
 3061.25	  1279
 3061.35	  1275
 3061.45	  1272
 3061.55	  1269
 3061.65	  1265
 3061.75	  1262
 3061.85	  1258
 3061.95	  1258
 3062.05	  1252
 3062.15	  1249
 3062.25	  1246
 3062.35	  1243
 3062.45	  1242
 3062.55	  1237
 3062.65	  1234
 3062.75	  1231
 3062.85	  1231
 3062.95	  1224
 3063.06	  1222
 3063.16	  1220
 3063.26	  1217
 3063.36	  1216
 3063.46	  1212
 3063.56	  1210
 3063.66	  1207
 3063.76	  1205
 3063.86	  1200
 3063.96	  1200
 3064.06	  1198
 3064.16	  1196
 3064.26	  1197
 3064.36	  1192
 3064.46	  1190
 3064.56	  1188
 3064.66	  1186
 3064.76	  1183
 3064.86	  1183
 3064.96	  1181
 3065.06	  1180
 3065.16	  1176
 3065.26	  1176
 3065.36	  1176
 3065.46	  1175
 3065.56	  1174
 3065.66	  1169
 3065.76	  1172
 3065.86	  1171
 3065.96	  1171
 3066.06	  1169
 3066.16	  1168
 3066.26	  1167
 3066.36	  1165
 3066.46	  1163
 3066.56	  1160
 3066.66	  1162
 3066.76	  1160
 3066.86	  1159
 3066.96	  1159
 3067.06	  1159
 3067.16	  1158
 3067.26	  1158
 3067.36	  1156
 3067.46	  1156
 3067.56	  1157
 3067.66	  1156
 3067.76	  1156
 3067.86	  1156
 3067.96	  1158
 3068.06	  1154
 3068.16	  1154
 3068.26	  1154
 3068.36	  1153
 3068.46	  1155
 3068.56	  1153
 3068.66	  1153
 3068.76	  1153
 3068.86	  1155
 3068.96	  1151
 3069.06	  1152
 3069.16	  1152
 3069.26	  1152
 3069.36	  1153
 3069.46	  1151
 3069.56	  1150
 3069.66	  1150
 3069.76	  1150
 3069.86	  1148
 3069.96	  1150
 3070.06	  1150
 3070.16	  1149
 3070.26	  1151
 3070.36	  1149
 3070.46	  1150
 3070.56	  1151
 3070.66	  1152
 3070.76	  1150
 3070.86	  1153
 3070.96	  1153
 3071.07	  1154
 3071.17	  1151
 3071.27	  1154
 3071.37	  1155
 3071.47	  1155
 3071.57	  1156
 3071.67	  1153
 3071.77	  1158
 3071.87	  1158
 3071.97	  1159
 3072.07	  1159
 3072.17	  1160
 3072.27	  1160
 3072.37	  1161
 3072.47	  1162
 3072.57	  1159
 3072.67	  1163
 3072.77	  1163
 3072.87	  1164
 3072.97	  1164
 3073.07	  1166
 3073.17	  1165
 3073.27	  1167
 3073.37	  1168
 3073.47	  1169
 3073.57	  1171
 3073.67	  1170
 3073.77	  1171
 3073.87	  1171
 3073.97	  1174
 3074.07	  1172
 3074.17	  1173
 3074.27	  1173
 3074.37	  1174
 3074.47	  1177
 3074.57	  1175
 3074.67	  1176
 3074.77	  1177
 3074.87	  1180
 3074.97	  1177
 3075.07	  1180
 3075.17	  1180
 3075.27	  1181
 3075.37	  1184
 3075.47	  1182
 3075.57	  1183
 3075.67	  1184
 3075.77	  1185
 3075.87	  1184
 3075.97	  1186
 3076.07	  1186
 3076.17	  1187
 3076.27	  1189
 3076.37	  1189
 3076.47	  1190
 3076.57	  1191
 3076.67	  1193
 3076.77	  1193
 3076.87	  1196
 3076.97	  1197
 3077.07	  1198
 3077.17	  1198
 3077.27	  1200
 3077.37	  1201
 3077.47	  1201
 3077.57	  1202
 3077.67	  1198
 3077.77	  1203
 3077.87	  1204
 3077.97	  1205
 3078.07	  1205
 3078.17	  1207
 3078.27	  1208
 3078.37	  1210
 3078.47	  1211
 3078.57	  1210
 3078.67	  1214
 3078.77	  1215
 3078.87	  1216
 3078.97	  1217
 3079.08	  1219
 3079.18	  1219
 3079.28	  1222
 3079.38	  1222
 3079.48	  1223
 3079.58	  1225
 3079.68	  1225
 3079.78	  1227
 3079.88	  1228
 3079.98	  1231
 3080.08	  1230
 3080.18	  1231
 3080.28	  1231
 3080.38	  1231
 3080.48	  1234
 3080.58	  1232
 3080.68	  1234
 3080.78	  1235
 3080.88	  1239
 3080.98	  1237
 3081.08	  1238
 3081.18	  1239
 3081.28	  1240
 3081.38	  1242
 3081.48	  1242
 3081.58	  1243
 3081.68	  1244
 3081.78	  1245
 3081.88	  1245
 3081.98	  1247
 3082.08	  1249
 3082.18	  1250
 3082.28	  1252
 3082.38	  1252
 3082.48	  1254
 3082.58	  1255
 3082.68	  1257
 3082.78	  1256
 3082.88	  1260
 3082.98	  1261
 3083.08	  1262
 3083.18	  1261
 3083.28	  1264
 3083.38	  1266
 3083.48	  1267
 3083.58	  1268
 3083.68	  1265
 3083.78	  1271
 3083.88	  1271
 3083.98	  1272
 3084.08	  1273
 3084.18	  1274
 3084.28	  1274
 3084.38	  1275
 3084.48	  1275
 3084.58	  1273
 3084.68	  1277
 3084.78	  1277
 3084.88	  1279
 3084.98	  1280
 3085.08	  1282
 3085.18	  1283
 3085.28	  1285
 3085.38	  1285
 3085.48	  1287
 3085.58	  1289
 3085.68	  1290
 3085.78	  1291
 3085.88	  1293
 3085.98	  1296
 3086.08	  1295
 3086.18	  1296
 3086.28	  1297
 3086.38	  1299
 3086.48	  1301
 3086.58	  1301
 3086.68	  1302
 3086.78	  1304
 3086.88	  1308
 3086.98	  1306
 3087.09	  1308
 3087.19	  1308
 3087.29	  1309
 3087.39	  1311
 3087.49	  1311
 3087.59	  1312
 3087.69	  1313
 3087.79	  1315
 3087.89	  1314
 3087.99	  1318
 3088.09	  1319
 3088.19	  1319
 3088.29	  1321
 3088.39	  1321
 3088.49	  1322
 3088.59	  1323
 3088.69	  1324
 3088.79	  1324
 3088.89	  1328
 3088.99	  1329
 3089.09	  1330
 3089.19	  1329
 3089.29	  1332
 3089.39	  1333
 3089.49	  1335
 3089.59	  1335
 3089.69	  1332
 3089.79	  1337
 3089.89	  1338
 3089.99	  1340
 3090.09	  1341
 3090.19	  1342
 3090.29	  1342
 3090.39	  1342
 3090.49	  1343
 3090.59	  1342
 3090.69	  1346
 3090.79	  1346
 3090.89	  1348
 3090.99	  1348
 3091.09	  1350
 3091.19	  1352
 3091.29	  1354
 3091.39	  1355
 3091.49	  1356
 3091.59	  1358
 3091.69	  1359
 3091.79	  1361
 3091.89	  1362
 3091.99	  1366
 3092.09	  1364
 3092.19	  1365
 3092.29	  1365
 3092.39	  1367
 3092.49	  1370
 3092.59	  1369
 3092.69	  1370
 3092.79	  1371
 3092.89	  1375
 3092.99	  1372
 3093.09	  1374
 3093.19	  1375
 3093.29	  1376
 3093.39	  1377
 3093.49	  1377
 3093.59	  1378
 3093.69	  1379
 3093.79	  1380
 3093.89	  1380
 3093.99	  1383
 3094.09	  1385
 3094.19	  1386
 3094.29	  1389
 3094.39	  1390
 3094.49	  1391
 3094.59	  1392
 3094.69	  1393
 3094.79	  1392
 3094.89	  1396
 3094.99	  1397
  3095.1	  1398
  3095.2	  1398
  3095.3	  1401
  3095.4	  1402
  3095.5	  1403
  3095.6	  1405
  3095.7	  1402
  3095.8	  1408
  3095.9	  1409
  3096.0	  1410
  3096.1	  1411
  3096.2	  1413
  3096.3	  1415
  3096.4	  1416
  3096.5	  1418
  3096.6	  1418
  3096.7	  1422
  3096.8	  1423
  3096.9	  1425
  3097.0	  1426
  3097.1	  1427
  3097.2	  1427
  3097.3	  1429
  3097.4	  1430
  3097.5	  1431
  3097.6	  1433
  3097.7	  1435
  3097.8	  1436
  3097.9	  1437
  3098.0	  1443
  3098.1	  1440
  3098.2	  1442
  3098.3	  1443
  3098.4	  1445
  3098.5	  1448
  3098.6	  1448
  3098.7	  1449
  3098.8	  1450
  3098.9	  1454
  3099.0	  1451
  3099.1	  1454
  3099.2	  1456
  3099.3	  1457
  3099.4	  1461
  3099.5	  1460
  3099.6	  1462
  3099.7	  1464
  3099.8	  1465
  3099.9	  1465
  3100.0	  1469
  3100.1	  1470
  3100.2	  1471
  3100.3	  1474
  3100.4	  1474
  3100.5	  1476
  3100.6	  1478
  3100.7	  1480
  3100.8	  1481
  3100.9	  1484
  3101.0	  1486
  3101.1	  1488
  3101.2	  1488
  3101.3	  1492
  3101.4	  1493
  3101.5	  1494
  3101.6	  1496
  3101.7	  1494
  3101.8	  1500
  3101.9	  1501
  3102.0	  1503
  3102.1	  1505
  3102.2	  1507
  3102.3	  1508
  3102.4	  1509
  3102.5	  1511
  3102.6	  1510
  3102.7	  1514
  3102.8	  1515
  3102.9	  1516
 3103.01	  1518
 3103.11	  1521
 3103.21	  1521
 3103.31	  1524
 3103.41	  1526
 3103.51	  1528
 3103.61	  1531
 3103.71	  1533
 3103.81	  1535
 3103.91	  1537
 3104.01	  1542
 3104.11	  1541
 3104.21	  1543
 3104.31	  1544
 3104.41	  1546
 3104.51	  1550
 3104.61	  1549
 3104.71	  1552
 3104.81	  1555
 3104.91	  1559
 3105.01	  1558
 3105.11	  1562
 3105.21	  1564
 3105.31	  1566
 3105.41	  1569
 3105.51	  1571
 3105.61	  1573
 3105.71	  1576
 3105.81	  1578
 3105.91	  1580
 3106.01	  1583
 3106.11	  1585
 3106.21	  1588
 3106.31	  1590
 3106.41	  1593
 3106.51	  1595
 3106.61	  1597
 3106.71	  1600
 3106.81	  1601
 3106.91	  1605
 3107.01	  1608
 3107.11	  1610
 3107.21	  1611
 3107.31	  1615
 3107.41	  1617
 3107.51	  1620
 3107.61	  1623
 3107.71	  1621
 3107.81	  1628
 3107.91	  1632
 3108.01	  1634
 3108.11	  1637
 3108.21	  1641
 3108.31	  1642
 3108.41	  1646
 3108.51	  1649
 3108.61	  1651
 3108.71	  1656
 3108.81	  1658
 3108.91	  1660
 3109.01	  1664
 3109.11	  1667
 3109.21	  1669
 3109.31	  1673
 3109.41	  1676
 3109.51	  1679
 3109.61	  1683
 3109.71	  1686
 3109.81	  1689
 3109.91	  1692
 3110.01	  1699
 3110.11	  1698
 3110.21	  1702
 3110.31	  1705
 3110.41	  1709
 3110.51	  1714
 3110.61	  1716
 3110.71	  1720
 3110.81	  1724
 3110.91	  1729
 3111.02	  1730
 3111.12	  1734
 3111.22	  1738
 3111.32	  1742
 3111.42	  1747
 3111.52	  1750
 3111.62	  1754
 3111.72	  1758
 3111.82	  1762
 3111.92	  1764
 3112.02	  1770
 3112.12	  1774
 3112.22	  1778
 3112.32	  1783
 3112.42	  1787
 3112.52	  1791
 3112.62	  1795
 3112.72	  1799
 3112.82	  1800
 3112.92	  1806
 3113.02	  1810
 3113.12	  1814
 3113.22	  1816
 3113.32	  1822
 3113.42	  1826
 3113.52	  1830
 3113.62	  1835
 3113.72	  1835
 3113.82	  1843
 3113.92	  1848
 3114.02	  1853
 3114.12	  1857
 3114.22	  1863
 3114.32	  1867
 3114.42	  1872
 3114.52	  1876
 3114.62	  1881
 3114.72	  1888
 3114.82	  1892
 3114.92	  1897
 3115.02	  1903
 3115.12	  1909
 3115.22	  1913
 3115.32	  1918
 3115.42	  1922
 3115.52	  1928
 3115.62	  1933
 3115.72	  1937
 3115.82	  1943
 3115.92	  1948
 3116.02	  1957
 3116.12	  1959
 3116.22	  1964
 3116.32	  1970
 3116.42	  1976
 3116.52	  1983
 3116.62	  1988
 3116.72	  1994
 3116.82	  1999
 3116.92	  2006
 3117.02	  2009
 3117.12	  2017
 3117.22	  2022
 3117.32	  2028
 3117.42	  2034
 3117.52	  2041
 3117.62	  2046
 3117.72	  2053
 3117.82	  2060
 3117.92	  2065
 3118.02	  2073
 3118.12	  2080
 3118.22	  2086
 3118.32	  2091
 3118.42	  2099
 3118.52	  2106
 3118.62	  2113
 3118.72	  2120
 3118.82	  2126
 3118.92	  2136
 3119.03	  2143
 3119.13	  2151
 3119.23	  2158
 3119.33	  2167
 3119.43	  2173
 3119.53	  2181
 3119.63	  2187
 3119.73	  2189
 3119.83	  2200
 3119.93	  2207
 3120.03	  2214
 3120.13	  2221
 3120.23	  2229
 3120.33	  2235
 3120.43	  2243
 3120.53	  2251
 3120.63	  2257
 3120.73	  2267
 3120.83	  2274
 3120.93	  2282
 3121.03	  2289
 3121.13	  2298
 3121.23	  2305
 3121.33	  2312
 3121.43	  2319
 3121.53	  2327
 3121.63	  2335
 3121.73	  2342
 3121.83	  2351
 3121.93	  2360
 3122.03	  2372
 3122.13	  2376
 3122.23	  2384
 3122.33	  2392
 3122.43	  2401
 3122.53	  2410
 3122.63	  2418
 3122.73	  2425
 3122.83	  2433
 3122.93	  2444
 3123.03	  2448
 3123.13	  2458
 3123.23	  2466
 3123.33	  2474
 3123.43	  2484
 3123.53	  2493
 3123.63	  2502
 3123.73	  2511
 3123.83	  2520
 3123.93	  2526
 3124.03	  2537
 3124.13	  2545
 3124.23	  2554
 3124.33	  2563
 3124.43	  2572
 3124.53	  2581
 3124.63	  2591
 3124.73	  2599
 3124.83	  2606
 3124.93	  2617
 3125.03	  2625
 3125.13	  2634
 3125.23	  2641
 3125.33	  2652
 3125.43	  2660
 3125.53	  2669
 3125.63	  2677
 3125.73	  2681
 3125.83	  2693
 3125.93	  2702
 3126.03	  2711
 3126.13	  2717
 3126.23	  2727
 3126.33	  2734
 3126.43	  2742
 3126.53	  2750
 3126.63	  2759
 3126.73	  2768
 3126.83	  2776
 3126.93	  2784
 3127.04	  2794
 3127.14	  2804
 3127.24	  2810
 3127.34	  2819
 3127.44	  2826
 3127.54	  2832
 3127.64	  2841
 3127.74	  2850
 3127.84	  2857
 3127.94	  2865
 3128.04	  2877
 3128.14	  2880
 3128.24	  2890
 3128.34	  2898
 3128.44	  2906
 3128.54	  2915
 3128.64	  2921
 3128.74	  2929
 3128.84	  2936
 3128.94	  2945
 3129.04	  2950
 3129.14	  2958
 3129.24	  2965
 3129.34	  2973
 3129.44	  2980
 3129.54	  2987
 3129.64	  2993
 3129.74	  3000
 3129.84	  3007
 3129.94	  3012
 3130.04	  3021
 3130.14	  3028
 3130.24	  3034
 3130.34	  3038
 3130.44	  3047
 3130.54	  3052
 3130.64	  3057
 3130.74	  3063
 3130.84	  3067
 3130.94	  3073
 3131.04	  3078
 3131.14	  3084
 3131.24	  3086
 3131.34	  3094
 3131.44	  3098
 3131.54	  3101
 3131.64	  3105
 3131.74	  3106
 3131.84	  3114
 3131.94	  3118
 3132.04	  3122
 3132.14	  3125
 3132.24	  3129
 3132.34	  3130
 3132.44	  3132
 3132.54	  3135
 3132.64	  3135
 3132.74	  3137
 3132.84	  3140
 3132.94	  3141
 3133.04	  3144
 3133.14	  3149
 3133.24	  3148
 3133.34	  3150
 3133.44	  3151
 3133.54	  3152
 3133.64	  3153
 3133.74	  3153
 3133.84	  3155
 3133.94	  3154
 3134.04	  3160
 3134.14	  3154
 3134.24	  3155
 3134.34	  3153
 3134.44	  3153
 3134.54	  3153
 3134.64	  3150
 3134.74	  3150
 3134.84	  3148
 3134.94	  3148
 3135.05	  3144
 3135.15	  3144
 3135.25	  3142
 3135.35	  3139
 3135.45	  3135
 3135.55	  3133
 3135.65	  3129
 3135.75	  3125
 3135.85	  3122
 3135.95	  3117
 3136.05	  3115
 3136.15	  3110
 3136.25	  3106
 3136.35	  3100
 3136.45	  3098
 3136.55	  3093
 3136.65	  3089
 3136.75	  3084
 3136.85	  3076
 3136.95	  3073
 3137.05	  3066
 3137.15	  3060
 3137.25	  3051
 3137.35	  3047
 3137.45	  3039
 3137.55	  3032
 3137.65	  3025
 3137.75	  3014
 3137.85	  3009
 3137.95	  3002
 3138.05	  2993
 3138.15	  2986
 3138.25	  2980
 3138.35	  2969
 3138.45	  2960
 3138.55	  2951
 3138.65	  2941
 3138.75	  2932
 3138.85	  2921
 3138.95	  2912
 3139.05	  2902
 3139.15	  2894
 3139.25	  2882
 3139.35	  2874
 3139.45	  2862
 3139.55	  2852
 3139.65	  2842
 3139.75	  2831
 3139.85	  2821
 3139.95	  2810
 3140.05	  2804
 3140.15	  2787
 3140.25	  2776
 3140.35	  2765
 3140.45	  2752
 3140.55	  2741
 3140.65	  2730
 3140.75	  2718
 3140.85	  2706
 3140.95	  2695
 3141.05	  2682
 3141.15	  2670
 3141.25	  2658
 3141.35	  2647
 3141.45	  2631
 3141.55	  2620
 3141.65	  2607
 3141.75	  2594
 3141.85	  2581
 3141.95	  2567
 3142.05	  2554
 3142.15	  2540
 3142.25	  2526
 3142.35	  2509
 3142.45	  2498
 3142.55	  2484
 3142.65	  2470
 3142.75	  2458
 3142.85	  2441
 3142.95	  2429
 3143.06	  2415
 3143.16	  2399
 3143.26	  2383
 3143.36	  2371
 3143.46	  2356
 3143.56	  2343
 3143.66	  2329
 3143.76	  2312
 3143.86	  2302
 3143.96	  2287
 3144.06	  2273
 3144.16	  2259
 3144.26	  2246
 3144.36	  2230
 3144.46	  2217
 3144.56	  2203
 3144.66	  2191
 3144.76	  2176
 3144.86	  2162
 3144.96	  2148
 3145.06	  2135
 3145.16	  2123
 3145.26	  2106
 3145.36	  2092
 3145.46	  2079
 3145.56	  2065
 3145.66	  2052
 3145.76	  2039
 3145.86	  2025
 3145.96	  2011
 3146.06	  2003
 3146.16	  1985
 3146.26	  1971
 3146.36	  1958
 3146.46	  1945
 3146.56	  1931
 3146.66	  1918
 3146.76	  1904
 3146.86	  1890
 3146.96	  1876
 3147.06	  1863
 3147.16	  1851
 3147.26	  1837
 3147.36	  1824
 3147.46	  1810
 3147.56	  1800
 3147.66	  1787
 3147.76	  1775
 3147.86	  1763
 3147.96	  1750
 3148.06	  1739
 3148.16	  1727
 3148.26	  1716
 3148.36	  1701
 3148.46	  1694
 3148.56	  1682
 3148.66	  1671
 3148.76	  1660
 3148.86	  1649
 3148.96	  1640
 3149.06	  1630
 3149.16	  1619
 3149.26	  1609
 3149.36	  1599
 3149.46	  1588
 3149.56	  1578
 3149.66	  1568
 3149.76	  1557
 3149.86	  1548
 3149.96	  1539
 3150.06	  1529
 3150.16	  1521
 3150.26	  1514
 3150.36	  1503
 3150.46	  1495
 3150.56	  1486
 3150.66	  1479
 3150.76	  1468
 3150.86	  1460
 3150.96	  1452
 3151.07	  1443
 3151.17	  1437
 3151.27	  1426
 3151.37	  1419
 3151.47	  1411
 3151.57	  1403
 3151.67	  1394
 3151.77	  1387
 3151.87	  1379
 3151.97	  1371
 3152.07	  1369
 3152.17	  1357
 3152.27	  1349
 3152.37	  1343
 3152.47	  1335
 3152.57	  1327
 3152.67	  1322
 3152.77	  1314
 3152.87	  1308
 3152.97	  1301
 3153.07	  1294
 3153.17	  1289
 3153.27	  1283
 3153.37	  1276
 3153.47	  1268
 3153.57	  1265
 3153.67	  1259
 3153.77	  1253
 3153.87	  1248
 3153.97	  1243
 3154.07	  1239
 3154.17	  1233
 3154.27	  1229
 3154.37	  1221
 3154.47	  1220
 3154.57	  1215
 3154.67	  1210
 3154.77	  1205
 3154.87	  1200
 3154.97	  1196
 3155.07	  1191
 3155.17	  1187
 3155.27	  1183
 3155.37	  1180
 3155.47	  1174
 3155.57	  1170
 3155.67	  1166
 3155.77	  1161
 3155.87	  1159
 3155.97	  1155
 3156.07	  1151
 3156.17	  1147
 3156.27	  1146
 3156.37	  1141
 3156.47	  1138
 3156.57	  1135
 3156.67	  1135
 3156.77	  1129
 3156.87	  1127
 3156.97	  1124
 3157.07	  1121
 3157.17	  1121
 3157.27	  1116
 3157.37	  1114
 3157.47	  1113
 3157.57	  1112
 3157.67	  1107
 3157.77	  1107
 3157.87	  1104
 3157.97	  1101
 3158.07	  1103
 3158.17	  1096
 3158.27	  1094
 3158.37	  1093
 3158.47	  1091
 3158.57	  1089
 3158.67	  1089
 3158.77	  1087
 3158.87	  1085
 3158.97	  1083
 3159.08	  1082
 3159.18	  1081
 3159.28	  1080
 3159.38	  1078
 3159.48	  1074
 3159.58	  1076
 3159.68	  1074
 3159.78	  1073
 3159.88	  1072
 3159.98	  1070
 3160.08	  1069
 3160.18	  1068
 3160.28	  1068
 3160.38	  1064
 3160.48	  1068
 3160.58	  1066
 3160.68	  1066
 3160.78	  1065
 3160.88	  1064
 3160.98	  1063
 3161.08	  1062
 3161.18	  1062
 3161.28	  1061
 3161.38	  1062
 3161.48	  1062
 3161.58	  1062
 3161.68	  1062
 3161.78	  1062
 3161.88	  1061
 3161.98	  1061
 3162.08	  1060
 3162.18	  1060
 3162.28	  1062
 3162.38	  1059
 3162.48	  1060
 3162.58	  1060
 3162.68	  1063
 3162.78	  1060
 3162.88	  1062
 3162.98	  1062
 3163.08	  1063
 3163.18	  1066
 3163.28	  1063
 3163.38	  1064
 3163.48	  1064
 3163.58	  1064
 3163.68	  1063
 3163.78	  1065
 3163.88	  1064
 3163.98	  1064
 3164.08	  1066
 3164.18	  1062
 3164.28	  1063
 3164.38	  1064
 3164.48	  1065
 3164.58	  1064
 3164.68	  1066
 3164.78	  1067
 3164.88	  1068
 3164.98	  1068
 3165.08	  1069
 3165.18	  1071
 3165.28	  1072
 3165.38	  1073
 3165.48	  1070
 3165.58	  1074
 3165.68	  1074
 3165.78	  1074
 3165.88	  1074
 3165.98	  1075
 3166.08	  1076
 3166.18	  1076
 3166.28	  1077
 3166.38	  1074
 3166.48	  1079
 3166.58	  1078
 3166.68	  1078
 3166.78	  1079
 3166.88	  1080
 3166.98	  1082
 3167.09	  1084
 3167.19	  1085
 3167.29	  1086
 3167.39	  1088
 3167.49	  1087
 3167.59	  1089
 3167.69	  1091
 3167.79	  1092
 3167.89	  1092
 3167.99	  1093
 3168.09	  1094
 3168.19	  1095
 3168.29	  1099
 3168.39	  1096
 3168.49	  1097
 3168.59	  1097
 3168.69	  1100
 3168.79	  1098
 3168.89	  1100
 3168.99	  1100
 3169.09	  1102
 3169.19	  1104
 3169.29	  1103
 3169.39	  1104
 3169.49	  1105
 3169.59	  1106
 3169.69	  1107
 3169.79	  1110
 3169.89	  1111
 3169.99	  1114
 3170.09	  1116
 3170.19	  1116
 3170.29	  1118
 3170.39	  1119
 3170.49	  1120
 3170.59	  1119
 3170.69	  1122
 3170.79	  1123
 3170.89	  1125
 3170.99	  1124
 3171.09	  1127
 3171.19	  1128
 3171.29	  1130
 3171.39	  1132
 3171.49	  1128
 3171.59	  1133
 3171.69	  1135
 3171.79	  1136
 3171.89	  1137
 3171.99	  1138
 3172.09	  1139
 3172.19	  1139
 3172.29	  1140
 3172.39	  1138
 3172.49	  1142
 3172.59	  1142
 3172.69	  1144
 3172.79	  1146
 3172.89	  1146
 3172.99	  1147
 3173.09	  1149
 3173.19	  1149
 3173.29	  1151
 3173.39	  1153
 3173.49	  1154
 3173.59	  1155
 3173.69	  1157
 3173.79	  1162
 3173.89	  1160
 3173.99	  1162
 3174.09	  1163
 3174.19	  1164
 3174.29	  1167
 3174.39	  1165
 3174.49	  1167
 3174.59	  1168
 3174.69	  1170
 3174.79	  1169
 3174.89	  1171
 3174.99	  1173
  3175.1	  1175
  3175.2	  1177
  3175.3	  1177
  3175.4	  1178
  3175.5	  1180
  3175.6	  1181
  3175.7	  1181
  3175.8	  1184
  3175.9	  1184
  3176.0	  1185
  3176.1	  1187
  3176.2	  1188
  3176.3	  1189
  3176.4	  1190
  3176.5	  1191
  3176.6	  1191
  3176.7	  1194
  3176.8	  1195
  3176.9	  1196
  3177.0	  1196
  3177.1	  1199
  3177.2	  1200
  3177.3	  1201
  3177.4	  1203
  3177.5	  1199
  3177.6	  1206
  3177.7	  1207
  3177.8	  1209
  3177.9	  1211
  3178.0	  1213
  3178.1	  1213
  3178.2	  1214
  3178.3	  1215
  3178.4	  1216
  3178.5	  1219
  3178.6	  1219
  3178.7	  1220
  3178.8	  1222
  3178.9	  1224
  3179.0	  1225
  3179.1	  1227
  3179.2	  1227
  3179.3	  1228
  3179.4	  1229
  3179.5	  1229
  3179.6	  1231
  3179.7	  1232
  3179.8	  1238
  3179.9	  1235
  3180.0	  1236
  3180.1	  1237
  3180.2	  1238
  3180.3	  1240
  3180.4	  1239
  3180.5	  1240
  3180.6	  1241
  3180.7	  1244
  3180.8	  1242
  3180.9	  1244
  3181.0	  1246
  3181.1	  1246
  3181.2	  1247
  3181.3	  1249
  3181.4	  1250
  3181.5	  1251
  3181.6	  1253
  3181.7	  1252
  3181.8	  1255
  3181.9	  1256
  3182.0	  1257
  3182.1	  1257
  3182.2	  1259
  3182.3	  1260
  3182.4	  1261
  3182.5	  1262
  3182.6	  1262
  3182.7	  1266
  3182.8	  1266
  3182.9	  1267
 3183.01	  1267
 3183.11	  1269
 3183.21	  1270
 3183.31	  1271
 3183.41	  1271
 3183.51	  1269
 3183.61	  1274
 3183.71	  1276
 3183.81	  1277
 3183.91	  1279
 3184.01	  1281
 3184.11	  1281
 3184.21	  1282
 3184.31	  1284
 3184.41	  1285
 3184.51	  1287
 3184.61	  1287
 3184.71	  1289
 3184.81	  1290
 3184.91	  1292
 3185.01	  1291
 3185.11	  1293
 3185.21	  1294
 3185.31	  1295
 3185.41	  1296
 3185.51	  1297
 3185.61	  1297
 3185.71	  1298
 3185.81	  1305
 3185.91	  1301
 3186.01	  1302
 3186.11	  1303
 3186.21	  1303
 3186.31	  1305
 3186.41	  1306
 3186.51	  1307
 3186.61	  1308
 3186.71	  1310
 3186.81	  1309
 3186.91	  1311
 3187.01	  1312
 3187.11	  1314
 3187.21	  1314
 3187.31	  1316
 3187.41	  1317
 3187.51	  1319
 3187.61	  1320
 3187.71	  1320
 3187.81	  1323
 3187.91	  1323
 3188.01	  1324
 3188.11	  1323
 3188.21	  1326
 3188.31	  1327
 3188.41	  1328
 3188.51	  1330
 3188.61	  1329
 3188.71	  1332
 3188.81	  1333
 3188.91	  1335
 3189.01	  1335
 3189.11	  1338
 3189.21	  1338
 3189.31	  1339
 3189.41	  1341
 3189.51	  1340
 3189.61	  1343
 3189.71	  1343
 3189.81	  1344
 3189.91	  1345
 3190.01	  1347
 3190.11	  1346
 3190.21	  1347
 3190.31	  1348
 3190.41	  1350
 3190.51	  1350
 3190.61	  1351
 3190.71	  1352
 3190.81	  1353
 3190.91	  1357
 3191.02	  1355
 3191.12	  1357
 3191.22	  1358
 3191.32	  1359
 3191.42	  1360
 3191.52	  1363
 3191.62	  1364
 3191.72	  1365
 3191.82	  1371
 3191.92	  1367
 3192.02	  1369
 3192.12	  1370
 3192.22	  1371
 3192.32	  1372
 3192.42	  1374
 3192.52	  1375
 3192.62	  1376
 3192.72	  1377
 3192.82	  1377
 3192.92	  1380
 3193.02	  1380
 3193.12	  1382
 3193.22	  1381
 3193.32	  1384
 3193.42	  1385
 3193.52	  1387
 3193.62	  1388
 3193.72	  1388
 3193.82	  1390
 3193.92	  1391
 3194.02	  1392
 3194.12	  1390
 3194.22	  1395
 3194.32	  1396
 3194.42	  1396
 3194.52	  1397
 3194.62	  1398
 3194.72	  1400
 3194.82	  1401
 3194.92	  1403
 3195.02	  1403
 3195.12	  1406
 3195.22	  1406
 3195.32	  1407
 3195.42	  1408
 3195.52	  1408
 3195.62	  1411
 3195.72	  1412
 3195.82	  1414
 3195.92	  1415
 3196.02	  1420
 3196.12	  1418
 3196.22	  1420
 3196.32	  1422
 3196.42	  1425
 3196.52	  1424
 3196.62	  1426
 3196.72	  1427
 3196.82	  1428
 3196.92	  1432
 3197.02	  1431
 3197.12	  1433
 3197.22	  1434
 3197.32	  1435
 3197.42	  1436
 3197.52	  1438
 3197.62	  1439
 3197.72	  1441
 3197.82	  1446
 3197.92	  1443
 3198.02	  1445
 3198.12	  1445
 3198.22	  1447
 3198.32	  1448
 3198.42	  1450
 3198.52	  1451
 3198.62	  1453
 3198.72	  1453
 3198.82	  1455
 3198.92	  1457
 3199.03	  1459
 3199.13	  1460
 3199.23	  1458
 3199.33	  1463
 3199.43	  1465
 3199.53	  1466
 3199.63	  1468
 3199.73	  1469
 3199.83	  1471
 3199.93	  1473
 3200.03	  1475
 3200.13	  1472
 3200.23	  1478
 3200.33	  1478
 3200.43	  1480
 3200.53	  1482
 3200.63	  1483
 3200.73	  1486
 3200.83	  1488
 3200.93	  1489
 3201.03	  1492
 3201.13	  1495
 3201.23	  1495
 3201.33	  1497
 3201.43	  1499
 3201.53	  1501
 3201.63	  1502
 3201.73	  1504
 3201.83	  1506
 3201.93	  1507
 3202.03	  1511
 3202.13	  1511
 3202.23	  1513
 3202.33	  1515
 3202.43	  1520
 3202.53	  1519
 3202.63	  1522
 3202.73	  1525
 3202.83	  1528
 3202.93	  1532
 3203.03	  1531
 3203.13	  1534
 3203.23	  1536
 3203.33	  1538
 3203.43	  1539
 3203.53	  1542
 3203.63	  1544
 3203.73	  1547
 3203.83	  1552
 3203.93	  1552
 3204.03	  1554
 3204.13	  1557
 3204.23	  1559
 3204.33	  1560
 3204.43	  1564
 3204.53	  1567
 3204.63	  1569
 3204.73	  1570
 3204.83	  1574
 3204.93	  1576
 3205.03	  1579
 3205.13	  1582
 3205.23	  1580
 3205.33	  1587
 3205.43	  1589
 3205.53	  1591
 3205.63	  1594
 3205.73	  1596
 3205.83	  1599
 3205.93	  1602
 3206.03	  1604
 3206.13	  1604
 3206.23	  1611
 3206.33	  1613
 3206.43	  1616
 3206.53	  1619
 3206.63	  1622
 3206.73	  1624
 3206.83	  1628
 3206.93	  1632
 3207.04	  1635
 3207.14	  1638
 3207.24	  1640
 3207.34	  1643
 3207.44	  1647
 3207.54	  1653
 3207.64	  1654
 3207.74	  1657
 3207.84	  1661
 3207.94	  1665
 3208.04	  1670
 3208.14	  1671
 3208.24	  1675
 3208.34	  1678
 3208.44	  1685
 3208.54	  1685
 3208.64	  1690
 3208.74	  1694
 3208.84	  1697
 3208.94	  1702
 3209.04	  1704
 3209.14	  1707
 3209.24	  1711
 3209.34	  1715
 3209.44	  1717
 3209.54	  1722
 3209.64	  1726
 3209.74	  1730
 3209.84	  1734
 3209.94	  1738
 3210.04	  1742
 3210.14	  1746
 3210.24	  1751
 3210.34	  1753
 3210.44	  1759
 3210.54	  1763
 3210.64	  1766
 3210.74	  1769
 3210.84	  1775
 3210.94	  1779
 3211.04	  1784
 3211.14	  1788
 3211.24	  1788
 3211.34	  1797
 3211.44	  1801
 3211.54	  1805
 3211.64	  1810
 3211.74	  1815
 3211.84	  1819
 3211.94	  1825
 3212.04	  1830
 3212.14	  1833
 3212.24	  1841
 3212.34	  1845
 3212.44	  1851
 3212.54	  1856
 3212.64	  1862
 3212.74	  1867
 3212.84	  1873
 3212.94	  1878
 3213.04	  1884
 3213.14	  1890
 3213.24	  1894
 3213.34	  1899
 3213.44	  1904
 3213.54	  1914
 3213.64	  1916
 3213.74	  1921
 3213.84	  1926
 3213.94	  1932
 3214.04	  1939
 3214.14	  1943
 3214.24	  1949
 3214.34	  1954
 3214.44	  1964
 3214.54	  1966
 3214.64	  1974
 3214.74	  1980
 3214.84	  1986
 3214.94	  1993
 3215.05	  1999
 3215.15	  2005
 3215.25	  2013
 3215.35	  2019
 3215.45	  2023
 3215.55	  2032
 3215.65	  2038
 3215.75	  2045
 3215.85	  2051
 3215.95	  2059
 3216.05	  2066
 3216.15	  2073
 3216.25	  2080
 3216.35	  2085
 3216.45	  2095
 3216.55	  2102
 3216.65	  2110
 3216.75	  2116
 3216.85	  2126
 3216.95	  2133
 3217.05	  2141
 3217.15	  2149
 3217.25	  2153
 3217.35	  2164
 3217.45	  2172
 3217.55	  2179
 3217.65	  2186
 3217.75	  2196
 3217.85	  2203
 3217.95	  2210
 3218.05	  2219
 3218.15	  2227
 3218.25	  2235
 3218.35	  2242
 3218.45	  2250
 3218.55	  2258
 3218.65	  2267
 3218.75	  2274
 3218.85	  2282
 3218.95	  2292
 3219.05	  2300
 3219.15	  2309
 3219.25	  2318
 3219.35	  2327
 3219.45	  2336
 3219.55	  2351
 3219.65	  2353
 3219.75	  2362
 3219.85	  2372
 3219.95	  2382
 3220.05	  2391
 3220.15	  2400
 3220.25	  2409
 3220.35	  2419
 3220.45	  2428
 3220.55	  2436
 3220.65	  2447
 3220.75	  2456
 3220.85	  2465
 3220.95	  2474
 3221.05	  2484
 3221.15	  2494
 3221.25	  2505
 3221.35	  2514
 3221.45	  2522
 3221.55	  2534
 3221.65	  2543
 3221.75	  2552
 3221.85	  2558
 3221.95	  2572
 3222.05	  2581
 3222.15	  2592
 3222.25	  2603
 3222.35	  2612
 3222.45	  2624
 3222.55	  2635
 3222.65	  2646
 3222.75	  2654
 3222.85	  2666
 3222.95	  2676
 3223.06	  2685
 3223.16	  2695
 3223.26	  2703
 3223.36	  2714
 3223.46	  2724
 3223.56	  2734
 3223.66	  2742
 3223.76	  2754
 3223.86	  2761
 3223.96	  2772
 3224.06	  2781
 3224.16	  2792
 3224.26	  2802
 3224.36	  2813
 3224.46	  2823
 3224.56	  2833
 3224.66	  2845
 3224.76	  2852
 3224.86	  2862
 3224.96	  2873
 3225.06	  2883
 3225.16	  2894
 3225.26	  2906
 3225.36	  2916
 3225.46	  2927
 3225.56	  2941
 3225.66	  2947
 3225.76	  2956
 3225.86	  2966
 3225.96	  2975
 3226.06	  2985
 3226.16	  2994
 3226.26	  3003
 3226.36	  3012
 3226.46	  3020
 3226.56	  3028
 3226.66	  3039
 3226.76	  3047
 3226.86	  3056
 3226.96	  3061
 3227.06	  3074
 3227.16	  3081
 3227.26	  3089
 3227.36	  3098
 3227.46	  3105
 3227.56	  3114
 3227.66	  3120
 3227.76	  3129
 3227.86	  3131
 3227.96	  3141
 3228.06	  3148
 3228.16	  3154
 3228.26	  3160
 3228.36	  3165
 3228.46	  3173
 3228.56	  3180
 3228.66	  3186
 3228.76	  3192
 3228.86	  3200
 3228.96	  3204
 3229.06	  3211
 3229.16	  3216
 3229.26	  3222
 3229.36	  3226
 3229.46	  3232
 3229.56	  3235
 3229.66	  3239
 3229.76	  3245
 3229.86	  3245
 3229.96	  3250
 3230.06	  3253
 3230.16	  3260
 3230.26	  3260
 3230.36	  3263
 3230.46	  3266
 3230.56	  3269
 3230.66	  3273
 3230.76	  3274
 3230.86	  3276
 3230.96	  3278
 3231.07	  3280
 3231.17	  3282
 3231.27	  3284
 3231.37	  3285
 3231.47	  3285
 3231.57	  3288
 3231.67	  3286
 3231.77	  3285
 3231.87	  3285
 3231.97	  3284
 3232.07	  3282
 3232.17	  3282
 3232.27	  3280
 3232.37	  3277
 3232.47	  3274
 3232.57	  3272
 3232.67	  3270
 3232.77	  3268
 3232.87	  3268
 3232.97	  3261
 3233.07	  3261
 3233.17	  3259
 3233.27	  3255
 3233.37	  3250
 3233.47	  3246
 3233.57	  3241
 3233.67	  3235
 3233.77	  3230
 3233.87	  3222
 3233.97	  3220
 3234.07	  3213
 3234.17	  3208
 3234.27	  3203
 3234.37	  3197
 3234.47	  3191
 3234.57	  3185
 3234.67	  3177
 3234.77	  3169
 3234.87	  3162
 3234.97	  3152
 3235.07	  3145
 3235.17	  3135
 3235.27	  3127
 3235.37	  3116
 3235.47	  3107
 3235.57	  3097
 3235.67	  3088
 3235.77	  3079
 3235.87	  3066
 3235.97	  3057
 3236.07	  3046
 3236.17	  3038
 3236.27	  3025
 3236.37	  3014
 3236.47	  3002
 3236.57	  2991
 3236.67	  2979
 3236.77	  2965
 3236.87	  2953
 3236.97	  2941
 3237.07	  2928
 3237.17	  2914
 3237.27	  2903
 3237.37	  2890
 3237.47	  2878
 3237.57	  2865
 3237.67	  2852
 3237.77	  2837
 3237.87	  2824
 3237.97	  2810
 3238.07	  2792
 3238.17	  2780
 3238.27	  2765
 3238.37	  2750
 3238.47	  2734
 3238.57	  2722
 3238.67	  2706
 3238.77	  2691
 3238.87	  2676
 3238.97	  2656
 3239.08	  2645
 3239.18	  2630
 3239.28	  2615
 3239.38	  2601
 3239.48	  2585
 3239.58	  2568
 3239.68	  2553
 3239.78	  2537
 3239.88	  2519
 3239.98	  2506
 3240.08	  2489
 3240.18	  2473
 3240.28	  2457
 3240.38	  2441
 3240.48	  2423
 3240.58	  2407
 3240.68	  2391
 3240.78	  2374
 3240.88	  2358
 3240.98	  2341
 3241.08	  2325
 3241.18	  2308
 3241.28	  2295
 3241.38	  2275
 3241.48	  2258
 3241.58	  2242
 3241.68	  2226
 3241.78	  2212
 3241.88	  2195
 3241.98	  2180
 3242.08	  2165
 3242.18	  2152
 3242.28	  2134
 3242.38	  2120
 3242.48	  2105
 3242.58	  2089
 3242.68	  2075
 3242.78	  2061
 3242.88	  2044
 3242.98	  2029
 3243.08	  2015
 3243.18	  1997
 3243.28	  1984
 3243.38	  1969
 3243.48	  1954
 3243.58	  1939
 3243.68	  1925
 3243.78	  1910
 3243.88	  1896
 3243.98	  1881
 3244.08	  1864
 3244.18	  1852
 3244.28	  1837
 3244.38	  1823
 3244.48	  1808
 3244.58	  1795
 3244.68	  1781
 3244.78	  1767
 3244.88	  1753
 3244.98	  1736
 3245.08	  1726
 3245.18	  1713
 3245.28	  1701
 3245.38	  1687
 3245.48	  1675
 3245.58	  1661
 3245.68	  1648
 3245.78	  1636
 3245.88	  1623
 3245.98	  1612
 3246.08	  1599
 3246.18	  1588
 3246.28	  1576
 3246.38	  1566
 3246.48	  1553
 3246.58	  1542
 3246.68	  1530
 3246.78	  1519
 3246.88	  1509
 3246.98	  1498
 3247.09	  1489
 3247.19	  1478
 3247.29	  1472
 3247.39	  1457
 3247.49	  1447
 3247.59	  1437
 3247.69	  1428
 3247.79	  1418
 3247.89	  1409
 3247.99	  1399
 3248.09	  1389
 3248.19	  1381
 3248.29	  1369
 3248.39	  1362
 3248.49	  1352
 3248.59	  1344
 3248.69	  1334
 3248.79	  1327
 3248.89	  1319
 3248.99	  1312
 3249.09	  1304
 3249.19	  1296
 3249.29	  1290
 3249.39	  1282
 3249.49	  1275
 3249.59	  1264
 3249.69	  1260
 3249.79	  1252
 3249.89	  1245
 3249.99	  1238
 3250.09	  1230
 3250.19	  1225
 3250.29	  1218
 3250.39	  1212
 3250.49	  1205
 3250.59	  1201
 3250.69	  1194
 3250.79	  1189
 3250.89	  1183
 3250.99	  1175
 3251.09	  1171
 3251.19	  1166
 3251.29	  1161
 3251.39	  1156
 3251.49	  1152
 3251.59	  1145
 3251.69	  1140
 3251.79	  1136
 3251.89	  1133
 3251.99	  1128
 3252.09	  1124
 3252.19	  1120
 3252.29	  1117
 3252.39	  1115
 3252.49	  1109
 3252.59	  1106
 3252.69	  1102
 3252.79	  1098
 3252.89	  1094
 3252.99	  1092
 3253.09	  1088
 3253.19	  1085
 3253.29	  1087
 3253.39	  1078
 3253.49	  1076
 3253.59	  1073
 3253.69	  1069
 3253.79	  1067
 3253.89	  1065
 3253.99	  1062
 3254.09	  1060
 3254.19	  1057
 3254.29	  1055
 3254.39	  1055
 3254.49	  1051
 3254.59	  1049
 3254.69	  1045
 3254.79	  1045
 3254.89	  1043
 3254.99	  1041
  3255.1	  1039
  3255.2	  1036
  3255.3	  1035
  3255.4	  1033
  3255.5	  1032
  3255.6	  1026
  3255.7	  1028
  3255.8	  1026
  3255.9	  1024
  3256.0	  1022
  3256.1	  1020
  3256.2	  1018
  3256.3	  1018
  3256.4	  1018
  3256.5	  1017
  3256.6	  1017
  3256.7	  1015
  3256.8	  1014
  3256.9	  1013
  3257.0	  1013
  3257.1	  1012
  3257.2	  1012
  3257.3	  1012
  3257.4	  1011
  3257.5	  1013
  3257.6	  1010
  3257.7	  1010
  3257.8	  1011
  3257.9	  1013
  3258.0	  1009
  3258.1	  1010
  3258.2	  1010
  3258.3	  1010
  3258.4	  1012
  3258.5	  1008
  3258.6	  1008
  3258.7	  1008
  3258.8	  1008
  3258.9	  1007
  3259.0	  1009
  3259.1	  1009
  3259.2	  1009
  3259.3	  1013
  3259.4	  1010
  3259.5	  1010
  3259.6	  1011
  3259.7	  1011
  3259.8	  1010
  3259.9	  1012
  3260.0	  1012
  3260.1	  1013
  3260.2	  1012
  3260.3	  1013
  3260.4	  1014
  3260.5	  1015
  3260.6	  1015
  3260.7	  1012
  3260.8	  1017
  3260.9	  1018
  3261.0	  1019
  3261.1	  1020
  3261.2	  1021
  3261.3	  1022
  3261.4	  1024
  3261.5	  1026
  3261.6	  1024
  3261.7	  1029
  3261.8	  1028
  3261.9	  1029
  3262.0	  1029
  3262.1	  1030
  3262.2	  1030
  3262.3	  1032
  3262.4	  1032
  3262.5	  1033
  3262.6	  1034
  3262.7	  1033
  3262.8	  1034
  3262.9	  1036
 3263.01	  1039
 3263.11	  1037
 3263.21	  1039
 3263.31	  1040
 3263.41	  1041
 3263.51	  1044
 3263.61	  1043
 3263.71	  1044
 3263.81	  1046
 3263.91	  1051
 3264.01	  1048
 3264.11	  1050
 3264.21	  1051
 3264.31	  1052
 3264.41	  1055
 3264.51	  1055
 3264.61	  1056
 3264.71	  1057
 3264.81	  1058
 3264.91	  1058
 3265.01	  1062
 3265.11	  1062
 3265.21	  1063
 3265.31	  1064
 3265.41	  1064
 3265.51	  1065
 3265.61	  1066
 3265.71	  1067
 3265.81	  1066
 3265.91	  1069
 3266.01	  1070
 3266.11	  1071
 3266.21	  1071
 3266.31	  1075
 3266.41	  1076
 3266.51	  1077
 3266.61	  1079
 3266.71	  1076
 3266.81	  1081
 3266.91	  1083
 3267.01	  1084
 3267.11	  1085
 3267.21	  1087
 3267.31	  1088
 3267.41	  1090
 3267.51	  1092
 3267.61	  1092
 3267.71	  1095
 3267.81	  1095
 3267.91	  1096
 3268.01	  1098
 3268.11	  1101
 3268.21	  1100
 3268.31	  1102
 3268.41	  1103
 3268.51	  1105
 3268.61	  1107
 3268.71	  1109
 3268.81	  1110
 3268.91	  1111
 3269.01	  1117
 3269.11	  1114
 3269.21	  1116
 3269.31	  1117
 3269.41	  1119
 3269.51	  1120
 3269.61	  1121
 3269.71	  1123
 3269.81	  1124
 3269.91	  1127
 3270.01	  1126
 3270.11	  1129
 3270.21	  1130
 3270.31	  1131
 3270.41	  1133
 3270.51	  1135
 3270.61	  1137
 3270.71	  1138
 3270.81	  1140
 3270.91	  1139
 3271.02	  1141
 3271.12	  1142
 3271.22	  1143
 3271.32	  1143
 3271.42	  1147
 3271.52	  1148
 3271.62	  1150
 3271.72	  1151
 3271.82	  1150
 3271.92	  1154
 3272.02	  1156
 3272.12	  1157
 3272.22	  1157
 3272.32	  1160
 3272.42	  1161
 3272.52	  1163
 3272.62	  1164
 3272.72	  1162
 3272.82	  1166
 3272.92	  1166
 3273.02	  1167
 3273.12	  1168
 3273.22	  1171
 3273.32	  1170
 3273.42	  1172
 3273.52	  1173
 3273.62	  1176
 3273.72	  1177
 3273.82	  1177
 3273.92	  1178
 3274.02	  1180
 3274.12	  1183
 3274.22	  1182
 3274.32	  1185
 3274.42	  1186
 3274.52	  1187
 3274.62	  1188
 3274.72	  1189
 3274.82	  1191
 3274.92	  1192
 3275.02	  1198
 3275.12	  1194
 3275.22	  1195
 3275.32	  1197
 3275.42	  1198
 3275.52	  1199
 3275.62	  1201
 3275.72	  1202
 3275.82	  1203
 3275.92	  1204
 3276.02	  1204
 3276.12	  1207
 3276.22	  1209
 3276.32	  1210
 3276.42	  1209
 3276.52	  1213
 3276.62	  1214
 3276.72	  1215
 3276.82	  1216
 3276.92	  1216
 3277.02	  1218
 3277.12	  1218
 3277.22	  1219
 3277.32	  1216
 3277.42	  1221
 3277.52	  1222
 3277.62	  1223
 3277.72	  1225
 3277.82	  1225
 3277.92	  1227
 3278.02	  1228
 3278.12	  1228
 3278.22	  1229
 3278.32	  1231
 3278.42	  1230
 3278.52	  1232
 3278.62	  1233
 3278.72	  1233
 3278.82	  1236
 3278.92	  1237
 3279.03	  1238
 3279.13	  1239
 3279.23	  1242
 3279.33	  1241
 3279.43	  1243
 3279.53	  1244
 3279.63	  1249
 3279.73	  1248
 3279.83	  1249
 3279.93	  1250
 3280.03	  1251
 3280.13	  1255
 3280.23	  1254
 3280.33	  1255
 3280.43	  1256
 3280.53	  1257
 3280.63	  1257
 3280.73	  1259
 3280.83	  1261
 3280.93	  1262
 3281.03	  1267
 3281.13	  1264
 3281.23	  1264
 3281.33	  1265
 3281.43	  1266
 3281.53	  1266
 3281.63	  1268
 3281.73	  1268
 3281.83	  1269
 3281.93	  1270
 3282.03	  1271
 3282.13	  1274
 3282.23	  1276
 3282.33	  1277
 3282.43	  1275
 3282.53	  1281
 3282.63	  1282
 3282.73	  1283
 3282.83	  1283
 3282.93	  1284
 3283.03	  1285
 3283.13	  1285
 3283.23	  1286
 3283.33	  1283
 3283.43	  1288
 3283.53	  1288
 3283.63	  1289
 3283.73	  1290
 3283.83	  1291
 3283.93	  1291
 3284.03	  1292
 3284.13	  1292
 3284.23	  1294
 3284.33	  1295
 3284.43	  1296
 3284.53	  1297
 3284.63	  1299
 3284.73	  1302
 3284.83	  1301
 3284.93	  1302
 3285.03	  1304
 3285.13	  1304
 3285.23	  1307
 3285.33	  1306
 3285.43	  1307
 3285.53	  1308
 3285.63	  1311
 3285.73	  1309
 3285.83	  1311
 3285.93	  1311
 3286.03	  1312
 3286.13	  1315
 3286.23	  1314
 3286.33	  1315
 3286.43	  1317
 3286.53	  1317
 3286.63	  1317
 3286.73	  1320
 3286.83	  1322
 3286.93	  1323
 3287.04	  1326
 3287.14	  1325
 3287.24	  1326
 3287.34	  1327
 3287.44	  1328
 3287.54	  1327
 3287.64	  1331
 3287.74	  1331
 3287.84	  1333
 3287.94	  1331
 3288.04	  1334
 3288.14	  1335
 3288.24	  1337
 3288.34	  1338
 3288.44	  1336
 3288.54	  1340
 3288.64	  1341
 3288.74	  1342
 3288.84	  1342
 3288.94	  1343
 3289.04	  1343
 3289.14	  1343
 3289.24	  1345
 3289.34	  1344
 3289.44	  1347
 3289.54	  1348
 3289.64	  1348
 3289.74	  1349
 3289.84	  1352
 3289.94	  1352
 3290.04	  1354
 3290.14	  1354
 3290.24	  1355
 3290.34	  1356
 3290.44	  1357
 3290.54	  1359
 3290.64	  1359
 3290.74	  1364
 3290.84	  1361
 3290.94	  1362
 3291.04	  1362
 3291.14	  1363
 3291.24	  1366
 3291.34	  1366
 3291.44	  1367
 3291.54	  1369
 3291.64	  1372
 3291.74	  1370
 3291.84	  1373
 3291.94	  1374
 3292.04	  1375
 3292.14	  1376
 3292.24	  1377
 3292.34	  1377
 3292.44	  1378
 3292.54	  1379
 3292.64	  1379
 3292.74	  1382
 3292.84	  1383
 3292.94	  1384
 3293.04	  1382
 3293.14	  1385
 3293.24	  1386
 3293.34	  1387
 3293.44	  1389
 3293.54	  1388
 3293.64	  1391
 3293.74	  1391
 3293.84	  1393
 3293.94	  1392
 3294.04	  1396
 3294.14	  1396
 3294.24	  1396
 3294.34	  1398
 3294.44	  1395
 3294.54	  1400
 3294.64	  1401
 3294.74	  1402
 3294.84	  1403
 3294.94	  1406
 3295.05	  1405
 3295.15	  1407
 3295.25	  1408
 3295.35	  1409
 3295.45	  1410
 3295.55	  1411
 3295.65	  1412
 3295.75	  1412
 3295.85	  1415
 3295.95	  1414
 3296.05	  1416
 3296.15	  1417
 3296.25	  1418
 3296.35	  1419
 3296.45	  1420
 3296.55	  1422
 3296.65	  1423
 3296.75	  1429
 3296.85	  1425
 3296.95	  1426
 3297.05	  1428
 3297.15	  1429
 3297.25	  1431
 3297.35	  1433
 3297.45	  1434
 3297.55	  1436
 3297.65	  1437
 3297.75	  1438
 3297.85	  1439
 3297.95	  1441
 3298.05	  1443
 3298.15	  1442
 3298.25	  1445
 3298.35	  1446
 3298.45	  1447
 3298.55	  1449
 3298.65	  1449
 3298.75	  1452
 3298.85	  1453
 3298.95	  1455
 3299.05	  1454
 3299.15	  1460
 3299.25	  1460
 3299.35	  1462
 3299.45	  1464
 3299.55	  1463
 3299.65	  1466
 3299.75	  1468
 3299.85	  1469
 3299.95	  1469
 3300.05	  1472
 3300.15	  1472
 3300.25	  1473
 3300.35	  1475
 3300.45	  1475
 3300.55	  1478
 3300.65	  1480
 3300.75	  1482
 3300.85	  1485
 3300.95	  1489
 3301.05	  1489
 3301.15	  1492
 3301.25	  1493
 3301.35	  1497
 3301.45	  1497
 3301.55	  1499
 3301.65	  1501
 3301.75	  1503
 3301.85	  1506
 3301.95	  1505
 3302.05	  1507
 3302.15	  1508
 3302.25	  1510
 3302.35	  1509
 3302.45	  1512
 3302.55	  1514
 3302.65	  1516
 3302.75	  1522
 3302.85	  1520
 3302.95	  1521
 3303.06	  1523
 3303.16	  1526
 3303.26	  1527
 3303.36	  1530
 3303.46	  1532
 3303.56	  1534
 3303.66	  1534
 3303.76	  1537
 3303.86	  1540
 3303.96	  1542
 3304.06	  1544
 3304.16	  1543
 3304.26	  1549
 3304.36	  1551
 3304.46	  1553
 3304.56	  1557
 3304.66	  1558
 3304.76	  1562
 3304.86	  1564
 3304.96	  1566
 3305.06	  1565
 3305.16	  1572
 3305.26	  1573
 3305.36	  1576
 3305.46	  1578
 3305.56	  1580
 3305.66	  1583
 3305.76	  1586
 3305.86	  1589
 3305.96	  1592
 3306.06	  1596
 3306.16	  1597
 3306.26	  1601
 3306.36	  1604
 3306.46	  1608
 3306.56	  1610
 3306.66	  1612
 3306.76	  1614
 3306.86	  1617
 3306.96	  1621
 3307.06	  1621
 3307.16	  1625
 3307.26	  1627
 3307.36	  1633
 3307.46	  1633
 3307.56	  1636
 3307.66	  1640
 3307.76	  1643
 3307.86	  1647
 3307.96	  1649
 3308.06	  1652
 3308.16	  1656
 3308.26	  1659
 3308.36	  1661
 3308.46	  1666
 3308.56	  1669
 3308.66	  1672
 3308.76	  1676
 3308.86	  1679
 3308.96	  1681
 3309.06	  1685
 3309.16	  1688
 3309.26	  1689
 3309.36	  1695
 3309.46	  1697
 3309.56	  1701
 3309.66	  1704
 3309.76	  1708
 3309.86	  1712
 3309.96	  1717
 3310.06	  1721
 3310.16	  1721
 3310.26	  1730
 3310.36	  1734
 3310.46	  1738
 3310.56	  1743
 3310.66	  1748
 3310.76	  1752
 3310.86	  1757
 3310.96	  1762
 3311.07	  1765
 3311.17	  1772
 3311.27	  1776
 3311.37	  1781
 3311.47	  1785
 3311.57	  1790
 3311.67	  1793
 3311.77	  1799
 3311.87	  1803
 3311.97	  1808
 3312.07	  1813
 3312.17	  1817
 3312.27	  1821
 3312.37	  1827
 3312.47	  1836
 3312.57	  1836
 3312.67	  1842
 3312.77	  1847
 3312.87	  1852
 3312.97	  1858
 3313.07	  1863
 3313.17	  1867
 3313.27	  1873
 3313.37	  1882
 3313.47	  1884
 3313.57	  1891
 3313.67	  1896
 3313.77	  1901
 3313.87	  1908
 3313.97	  1914
 3314.07	  1920
 3314.17	  1926
 3314.27	  1932
 3314.37	  1936
 3314.47	  1944
 3314.57	  1949
 3314.67	  1956
 3314.77	  1961
 3314.87	  1969
 3314.97	  1975
 3315.07	  1982
 3315.17	  1988
 3315.27	  1994
 3315.37	  2002
 3315.47	  2008
 3315.57	  2015
 3315.67	  2020
 3315.77	  2030
 3315.87	  2035
 3315.97	  2043
 3316.07	  2049
 3316.17	  2054
 3316.27	  2063
 3316.37	  2070
 3316.47	  2078
 3316.57	  2084
 3316.67	  2092
 3316.77	  2097
 3316.87	  2104
 3316.97	  2111
 3317.07	  2120
 3317.17	  2127
 3317.27	  2133
 3317.37	  2141
 3317.47	  2149
 3317.57	  2158
 3317.67	  2164
 3317.77	  2172
 3317.87	  2181
 3317.97	  2188
 3318.07	  2196
 3318.17	  2206
 3318.27	  2213
 3318.37	  2222
 3318.47	  2236
 3318.57	  2239
 3318.67	  2249
 3318.77	  2259
 3318.87	  2268
 3318.97	  2277
 3319.08	  2286
 3319.18	  2295
 3319.28	  2305
 3319.38	  2314
 3319.48	  2323
 3319.58	  2334
 3319.68	  2342
 3319.78	  2352
 3319.88	  2360
 3319.98	  2370
 3320.08	  2379
 3320.18	  2388
 3320.28	  2398
 3320.38	  2407
 3320.48	  2418
 3320.58	  2428
 3320.68	  2438
 3320.78	  2444
 3320.88	  2459
 3320.98	  2468
 3321.08	  2478
 3321.18	  2489
 3321.28	  2498
 3321.38	  2508
 3321.48	  2519
 3321.58	  2528
 3321.68	  2537
 3321.78	  2548
 3321.88	  2557
 3321.98	  2568
 3322.08	  2577
 3322.18	  2587
 3322.28	  2599
 3322.38	  2608
 3322.48	  2619
 3322.58	  2630
 3322.68	  2644
 3322.78	  2653
 3322.88	  2664
 3322.98	  2675
 3323.08	  2688
 3323.18	  2696
 3323.28	  2708
 3323.38	  2719
 3323.48	  2730
 3323.58	  2744
 3323.68	  2752
 3323.78	  2765
 3323.88	  2776
 3323.98	  2788
 3324.08	  2797
 3324.18	  2810
 3324.28	  2821
 3324.38	  2832
 3324.48	  2847
 3324.58	  2853
 3324.68	  2865
 3324.78	  2875
 3324.88	  2885
 3324.98	  2895
 3325.08	  2906
 3325.18	  2916
 3325.28	  2926
 3325.38	  2934
 3325.48	  2945
 3325.58	  2955
 3325.68	  2965
 3325.78	  2975
 3325.88	  2982
 3325.98	  2997
 3326.08	  3007
 3326.18	  3017
 3326.28	  3027
 3326.38	  3038
 3326.48	  3047
 3326.58	  3057
 3326.68	  3067
 3326.78	  3075
 3326.88	  3089
 3326.98	  3097
 3327.09	  3107
 3327.19	  3116
 3327.29	  3124
 3327.39	  3134
 3327.49	  3144
 3327.59	  3153
 3327.69	  3163
 3327.79	  3173
 3327.89	  3180
 3327.99	  3189
 3328.09	  3199
 3328.19	  3209
 3328.29	  3217
 3328.39	  3225
 3328.49	  3233
 3328.59	  3242
 3328.69	  3251
 3328.79	  3255
 3328.89	  3261
 3328.99	  3268
 3329.09	  3276
 3329.19	  3279
 3329.29	  3285
 3329.39	  3290
 3329.49	  3297
 3329.59	  3302
 3329.69	  3306
 3329.79	  3311
 3329.89	  3315
 3329.99	  3319
 3330.09	  3322
 3330.19	  3326
 3330.29	  3330
 3330.39	  3333
 3330.49	  3337
 3330.59	  3339
 3330.69	  3342
 3330.79	  3346
 3330.89	  3348
 3330.99	  3349
 3331.09	  3353
 3331.19	  3357
 3331.29	  3358
 3331.39	  3358
 3331.49	  3361
 3331.59	  3361
 3331.69	  3361
 3331.79	  3361
 3331.89	  3356
 3331.99	  3361
 3332.09	  3361
 3332.19	  3361
 3332.29	  3358
 3332.39	  3358
 3332.49	  3356
 3332.59	  3354
 3332.69	  3352
 3332.79	  3348
 3332.89	  3348
 3332.99	  3342
 3333.09	  3339
 3333.19	  3336
 3333.29	  3331
 3333.39	  3323
 3333.49	  3318
 3333.59	  3310
 3333.69	  3304
 3333.79	  3299
 3333.89	  3293
 3333.99	  3287
 3334.09	  3280
 3334.19	  3276
 3334.29	  3265
 3334.39	  3257
 3334.49	  3250
 3334.59	  3244
 3334.69	  3237
 3334.79	  3227
 3334.89	  3220
 3334.99	  3212
  3335.1	  3205
  3335.2	  3193
  3335.3	  3184
  3335.4	  3174
  3335.5	  3164
  3335.6	  3153
  3335.7	  3142
  3335.8	  3131
  3335.9	  3120
  3336.0	  3109
  3336.1	  3095
  3336.2	  3085
  3336.3	  3073
  3336.4	  3059
  3336.5	  3044
  3336.6	  3034
  3336.7	  3020
  3336.8	  3007
  3336.9	  2993
  3337.0	  2977
  3337.1	  2966
  3337.2	  2951
  3337.3	  2937
  3337.4	  2922
  3337.5	  2910
  3337.6	  2896
  3337.7	  2881
  3337.8	  2866
  3337.9	  2847
  3338.0	  2836
  3338.1	  2819
  3338.2	  2803
  3338.3	  2787
  3338.4	  2772
  3338.5	  2753
  3338.6	  2737
  3338.7	  2721
  3338.8	  2706
  3338.9	  2689
  3339.0	  2672
  3339.1	  2655
  3339.2	  2638
  3339.3	  2623
  3339.4	  2604
  3339.5	  2587
  3339.6	  2571
  3339.7	  2555
  3339.8	  2536
  3339.9	  2520
  3340.0	  2504
  3340.1	  2486
  3340.2	  2475
  3340.3	  2453
  3340.4	  2436
  3340.5	  2419
  3340.6	  2402
  3340.7	  2385
  3340.8	  2368
  3340.9	  2351
  3341.0	  2334
  3341.1	  2316
  3341.2	  2298
  3341.3	  2283
  3341.4	  2265
  3341.5	  2247
  3341.6	  2226
  3341.7	  2211
  3341.8	  2192
  3341.9	  2174
  3342.0	  2156
  3342.1	  2136
  3342.2	  2120
  3342.3	  2103
  3342.4	  2086
  3342.5	  2065
  3342.6	  2053
  3342.7	  2036
  3342.8	  2020
  3342.9	  2004
 3343.01	  1987
 3343.11	  1972
 3343.21	  1956
 3343.31	  1941
 3343.41	  1925
 3343.51	  1910
 3343.61	  1893
 3343.71	  1877
 3343.81	  1862
 3343.91	  1846
 3344.01	  1831
 3344.11	  1817
 3344.21	  1802
 3344.31	  1787
 3344.41	  1775
 3344.51	  1758
 3344.61	  1743
 3344.71	  1729
 3344.81	  1718
 3344.91	  1701
 3345.01	  1687
 3345.11	  1673
 3345.21	  1659
 3345.31	  1648
 3345.41	  1632
 3345.51	  1619
 3345.61	  1605
 3345.71	  1593
 3345.81	  1578
 3345.91	  1567
 3346.01	  1555
 3346.11	  1543
 3346.21	  1535
 3346.31	  1518
 3346.41	  1506
 3346.51	  1494
 3346.61	  1482
 3346.71	  1469
 3346.81	  1460
 3346.91	  1448
 3347.01	  1437
 3347.11	  1424
 3347.21	  1414
 3347.31	  1405
 3347.41	  1394
 3347.51	  1384
 3347.61	  1371
 3347.71	  1365
 3347.81	  1355
 3347.91	  1346
 3348.01	  1336
 3348.11	  1326
 3348.21	  1318
 3348.31	  1308
 3348.41	  1299
 3348.51	  1287
 3348.61	  1282
 3348.71	  1273
 3348.81	  1265
 3348.91	  1257
 3349.01	  1249
 3349.11	  1242
 3349.21	  1235
 3349.31	  1228
 3349.41	  1222
 3349.51	  1215
 3349.61	  1208
 3349.71	  1201
 3349.81	  1195
 3349.91	  1191
 3350.01	  1183
 3350.11	  1177
 3350.21	  1170
 3350.31	  1164
 3350.41	  1160
 3350.51	  1152
 3350.61	  1147
 3350.71	  1140
 3350.81	  1136
 3350.91	  1127
 3351.02	  1122
 3351.12	  1116
 3351.22	  1110
 3351.32	  1106
 3351.42	  1100
 3351.52	  1095
 3351.62	  1092
 3351.72	  1088
 3351.82	  1083
 3351.92	  1081
 3352.02	  1077
 3352.12	  1074
 3352.22	  1071
 3352.32	  1068
 3352.42	  1064
 3352.52	  1060
 3352.62	  1057
 3352.72	  1052
 3352.82	  1051
 3352.92	  1047
 3353.02	  1045
 3353.12	  1039
 3353.22	  1038
 3353.32	  1035
 3353.42	  1033
 3353.52	  1029
 3353.62	  1022
 3353.72	  1024
 3353.82	  1021
 3353.92	  1019
 3354.02	  1016
 3354.12	  1015
 3354.22	  1012
 3354.32	  1011
 3354.42	  1009
 3354.52	  1007
 3354.62	  1006
 3354.72	  1003
 3354.82	  1002
 3354.92	  1000
 3355.02	  1000
 3355.12	   996
 3355.22	   996
 3355.32	   995
 3355.42	   993
 3355.52	   993
 3355.62	   991
 3355.72	   990
 3355.82	   989
 3355.92	   993
 3356.02	   987
 3356.12	   986
 3356.22	   985
 3356.32	   984
 3356.42	   985
 3356.52	   984
 3356.62	   983
 3356.72	   983
 3356.82	   983
 3356.92	   981
 3357.02	   982
 3357.12	   982
 3357.22	   983
 3357.32	   982
 3357.42	   983
 3357.52	   982
 3357.62	   982
 3357.72	   982
 3357.82	   982
 3357.92	   983
 3358.02	   983
 3358.12	   984
 3358.22	   981
 3358.32	   984
 3358.42	   984
 3358.52	   984
 3358.62	   984
 3358.72	   983
 3358.82	   985
 3358.92	   986
 3359.03	   986
 3359.13	   986
 3359.23	   988
 3359.33	   987
 3359.43	   987
 3359.53	   987
 3359.63	   986
 3359.73	   988
 3359.83	   989
 3359.93	   990
 3360.03	   991
 3360.13	   994
 3360.23	   993
 3360.33	   994
 3360.43	   995
 3360.53	   997
 3360.63	   996
 3360.73	   997
 3360.83	   998
 3360.93	  1000
 3361.03	  1004
 3361.13	  1002
 3361.23	  1004
 3361.33	  1005
 3361.43	  1005
 3361.53	  1006
 3361.63	  1007
 3361.73	  1008
 3361.83	  1009
 3361.93	  1015
 3362.03	  1011
 3362.13	  1013
 3362.23	  1014
 3362.33	  1015
 3362.43	  1016
 3362.53	  1019
 3362.63	  1021
 3362.73	  1022
 3362.83	  1021
 3362.93	  1024
 3363.03	  1025
 3363.13	  1026
 3363.23	  1028
 3363.33	  1025
 3363.43	  1030
 3363.53	  1032
 3363.63	  1033
 3363.73	  1034
 3363.83	  1035
 3363.93	  1038
 3364.03	  1039
 3364.13	  1040
 3364.23	  1038
 3364.33	  1043
 3364.43	  1043
 3364.53	  1045
 3364.63	  1046
 3364.73	  1046
 3364.83	  1048
 3364.93	  1050
 3365.03	  1050
 3365.13	  1052
 3365.23	  1054
 3365.33	  1054
 3365.43	  1055
 3365.53	  1057
 3365.63	  1059
 3365.73	  1060
 3365.83	  1062
 3365.93	  1063
 3366.03	  1065
 3366.13	  1069
 3366.23	  1068
 3366.33	  1071
 3366.43	  1072
 3366.53	  1076
 3366.63	  1075
 3366.73	  1077
 3366.83	  1078
 3366.93	  1080
 3367.04	  1083
 3367.14	  1082
 3367.24	  1083
 3367.34	  1085
 3367.44	  1086
 3367.54	  1086
 3367.64	  1090
 3367.74	  1091
 3367.84	  1093
 3367.94	  1095
 3368.04	  1095
 3368.14	  1096
 3368.24	  1097
 3368.34	  1098
 3368.44	  1097
 3368.54	  1101
 3368.64	  1102
 3368.74	  1103
 3368.84	  1103
 3368.94	  1107
 3369.04	  1108
 3369.14	  1110
 3369.24	  1112
 3369.34	  1110
 3369.44	  1116
 3369.54	  1118
 3369.64	  1120
 3369.74	  1122
 3369.84	  1123
 3369.94	  1123
 3370.04	  1125
 3370.14	  1126
 3370.24	  1126
 3370.34	  1130
 3370.44	  1131
 3370.54	  1132
 3370.64	  1134
 3370.74	  1137
 3370.84	  1137
 3370.94	  1139
 3371.04	  1140
 3371.14	  1142
 3371.24	  1144
 3371.34	  1145
 3371.44	  1148
 3371.54	  1149
 3371.64	  1154
 3371.74	  1150
 3371.84	  1151
 3371.94	  1153
 3372.04	  1155
 3372.14	  1157
 3372.24	  1156
 3372.34	  1157
 3372.44	  1158
 3372.54	  1160
 3372.64	  1158
 3372.74	  1161
 3372.84	  1163
 3372.94	  1164
 3373.04	  1166
 3373.14	  1167
 3373.24	  1168
 3373.34	  1169
 3373.44	  1171
 3373.54	  1171
 3373.64	  1174
 3373.74	  1175
 3373.84	  1176
 3373.94	  1175
 3374.04	  1178
 3374.14	  1179
 3374.24	  1179
 3374.34	  1180
 3374.44	  1180
 3374.54	  1185
 3374.64	  1186
 3374.74	  1188
 3374.84	  1188
 3374.94	  1191
 3375.05	  1191
 3375.15	  1194
 3375.25	  1195
 3375.35	  1193
 3375.45	  1197
 3375.55	  1198
 3375.65	  1199
 3375.75	  1200
 3375.85	  1203
 3375.95	  1203
 3376.05	  1205
 3376.15	  1206
 3376.25	  1208
 3376.35	  1208
 3376.45	  1209
 3376.55	  1211
 3376.65	  1212
 3376.75	  1214
 3376.85	  1213
 3376.95	  1214
 3377.05	  1215
 3377.15	  1216
 3377.25	  1217
 3377.35	  1219
 3377.45	  1221
 3377.55	  1222
 3377.65	  1228
 3377.75	  1224
 3377.85	  1225
 3377.95	  1227
 3378.05	  1228
 3378.15	  1228
 3378.25	  1231
 3378.35	  1231
 3378.45	  1233
 3378.55	  1235
 3378.65	  1235
 3378.75	  1237
 3378.85	  1238
 3378.95	  1239
 3379.05	  1237
 3379.15	  1242
 3379.25	  1242
 3379.35	  1243
 3379.45	  1244
 3379.55	  1245
 3379.65	  1247
 3379.75	  1248
 3379.85	  1248
 3379.95	  1246
 3380.05	  1252
 3380.15	  1252
 3380.25	  1254
 3380.35	  1255
 3380.45	  1255
 3380.55	  1257
 3380.65	  1259
 3380.75	  1259
 3380.85	  1260
 3380.95	  1262
 3381.05	  1262
 3381.15	  1263
 3381.25	  1264
 3381.35	  1265
 3381.45	  1266
 3381.55	  1266
 3381.65	  1267
 3381.75	  1269
 3381.85	  1273
 3381.95	  1272
 3382.05	  1273
 3382.15	  1274
 3382.25	  1278
 3382.35	  1276
 3382.45	  1278
 3382.55	  1278
 3382.65	  1280
 3382.75	  1283
 3382.85	  1282
 3382.95	  1283
 3383.06	  1285
 3383.16	  1285
 3383.26	  1284
 3383.36	  1287
 3383.46	  1287
 3383.56	  1288
 3383.66	  1292
 3383.76	  1291
 3383.86	  1292
 3383.96	  1293
 3384.06	  1293
 3384.16	  1293
 3384.26	  1296
 3384.36	  1296
 3384.46	  1297
 3384.56	  1297
 3384.66	  1298
 3384.76	  1300
 3384.86	  1300
 3384.96	  1301
 3385.06	  1298
 3385.16	  1303
 3385.26	  1303
 3385.36	  1305
 3385.46	  1306
 3385.56	  1307
 3385.66	  1308
 3385.76	  1309
 3385.86	  1311
 3385.96	  1309
 3386.06	  1313
 3386.16	  1314
 3386.26	  1315
 3386.36	  1315
 3386.46	  1316
 3386.56	  1316
 3386.66	  1318
 3386.76	  1319
 3386.86	  1321
 3386.96	  1322
 3387.06	  1322
 3387.16	  1322
 3387.26	  1323
 3387.36	  1328
 3387.46	  1325
 3387.56	  1326
 3387.66	  1327
 3387.76	  1329
 3387.86	  1332
 3387.96	  1331
 3388.06	  1332
 3388.16	  1332
 3388.26	  1335
 3388.36	  1333
 3388.46	  1335
 3388.56	  1336
 3388.66	  1337
 3388.76	  1340
 3388.86	  1340
 3388.96	  1341
 3389.06	  1342
 3389.16	  1343
 3389.26	  1342
 3389.36	  1345
 3389.46	  1345
 3389.56	  1347
 3389.66	  1347
 3389.76	  1348
 3389.86	  1349
 3389.96	  1350
 3390.06	  1351
 3390.16	  1350
 3390.26	  1353
 3390.36	  1353
 3390.46	  1354
 3390.56	  1352
 3390.66	  1355
 3390.76	  1355
 3390.86	  1356
 3390.96	  1357
 3391.07	  1354
 3391.17	  1358
 3391.27	  1360
 3391.37	  1360
 3391.47	  1361
 3391.57	  1364
 3391.67	  1363
 3391.77	  1365
 3391.87	  1366
 3391.97	  1367
 3392.07	  1369
 3392.17	  1369
 3392.27	  1369
 3392.37	  1370
 3392.47	  1372
 3392.57	  1371
 3392.67	  1372
 3392.77	  1374
 3392.87	  1374
 3392.97	  1376
 3393.07	  1377
 3393.17	  1378
 3393.27	  1379
 3393.37	  1386
 3393.47	  1381
 3393.57	  1383
 3393.67	  1383
 3393.77	  1384
 3393.87	  1385
 3393.97	  1386
 3394.07	  1387
 3394.17	  1388
 3394.27	  1389
 3394.37	  1388
 3394.47	  1390
 3394.57	  1391
 3394.67	  1392
 3394.77	  1391
 3394.87	  1394
 3394.97	  1395
 3395.07	  1396
 3395.17	  1397
 3395.27	  1397
 3395.37	  1399
 3395.47	  1400
 3395.57	  1401
 3395.67	  1399
 3395.77	  1404
 3395.87	  1405
 3395.97	  1407
 3396.07	  1408
 3396.17	  1407
 3396.27	  1409
 3396.37	  1411
 3396.47	  1411
 3396.57	  1412
 3396.67	  1415
 3396.77	  1414
 3396.87	  1416
 3396.97	  1418
 3397.07	  1417
 3397.17	  1419
 3397.27	  1420
 3397.37	  1421
 3397.47	  1421
 3397.57	  1424
 3397.67	  1422
 3397.77	  1423
 3397.87	  1424
 3397.97	  1428
 3398.07	  1427
 3398.17	  1427
 3398.27	  1429
 3398.37	  1431
 3398.47	  1434
 3398.57	  1433
 3398.67	  1435
 3398.77	  1435
 3398.87	  1437
 3398.97	  1438
 3399.08	  1440
 3399.18	  1441
 3399.28	  1443
 3399.38	  1448
 3399.48	  1446
 3399.58	  1447
 3399.68	  1449
 3399.78	  1450
 3399.88	  1450
 3399.98	  1452
 3400.08	  1453
 3400.18	  1454
 3400.28	  1454
 3400.38	  1457
 3400.48	  1459
 3400.58	  1460
 3400.68	  1461
 3400.78	  1458
 3400.88	  1462
 3400.98	  1463
 3401.08	  1465
 3401.18	  1466
 3401.28	  1467
 3401.38	  1469
 3401.48	  1471
 3401.58	  1472
 3401.68	  1470
 3401.78	  1476
 3401.88	  1476
 3401.98	  1477
 3402.08	  1479
 3402.18	  1480
 3402.28	  1481
 3402.38	  1484
 3402.48	  1485
 3402.58	  1487
 3402.68	  1489
 3402.78	  1490
 3402.88	  1492
 3402.98	  1494
 3403.08	  1498
 3403.18	  1498
 3403.28	  1500
 3403.38	  1501
 3403.48	  1503
 3403.58	  1507
 3403.68	  1506
 3403.78	  1508
 3403.88	  1509
 3403.98	  1514
 3404.08	  1513
 3404.18	  1516
 3404.28	  1517
 3404.38	  1519
 3404.48	  1523
 3404.58	  1523
 3404.68	  1524
 3404.78	  1526
 3404.88	  1529
 3404.98	  1529
 3405.08	  1532
 3405.18	  1534
 3405.28	  1536
 3405.38	  1540
 3405.48	  1540
 3405.58	  1542
 3405.68	  1545
 3405.78	  1547
 3405.88	  1547
 3405.98	  1551
 3406.08	  1552
 3406.18	  1554
 3406.28	  1555
 3406.38	  1558
 3406.48	  1561
 3406.58	  1564
 3406.68	  1565
 3406.78	  1563
 3406.88	  1570
 3406.98	  1572
 3407.09	  1574
 3407.19	  1576
 3407.29	  1579
 3407.39	  1581
 3407.49	  1583
 3407.59	  1586
 3407.69	  1587
 3407.79	  1592
 3407.89	  1594
 3407.99	  1597
 3408.09	  1600
 3408.19	  1604
 3408.29	  1606
 3408.39	  1608
 3408.49	  1611
 3408.59	  1614
 3408.69	  1617
 3408.79	  1619
 3408.89	  1622
 3408.99	  1624
 3409.09	  1631
 3409.19	  1630
 3409.29	  1633
 3409.39	  1635
 3409.49	  1638
 3409.59	  1643
 3409.69	  1646
 3409.79	  1649
 3409.89	  1652
 3409.99	  1657
 3410.09	  1657
 3410.19	  1662
 3410.29	  1665
 3410.39	  1668
 3410.49	  1670
 3410.59	  1674
 3410.69	  1677
 3410.79	  1681
 3410.89	  1683
 3410.99	  1684
 3411.09	  1690
 3411.19	  1692
 3411.29	  1696
 3411.39	  1699
 3411.49	  1704
 3411.59	  1708
 3411.69	  1712
 3411.79	  1716
 3411.89	  1719
 3411.99	  1725
 3412.09	  1728
 3412.19	  1732
 3412.29	  1735
 3412.39	  1741
 3412.49	  1744
 3412.59	  1748
 3412.69	  1752
 3412.79	  1754
 3412.89	  1761
 3412.99	  1765
 3413.09	  1770
 3413.19	  1774
 3413.29	  1780
 3413.39	  1783
 3413.49	  1787
 3413.59	  1792
 3413.69	  1798
 3413.79	  1802
 3413.89	  1807
 3413.99	  1811
 3414.09	  1816
 3414.19	  1822
 3414.29	  1824
 3414.39	  1829
 3414.49	  1834
 3414.59	  1838
 3414.69	  1843
 3414.79	  1849
 3414.89	  1853
 3414.99	  1858
  3415.1	  1868
  3415.2	  1868
  3415.3	  1873
  3415.4	  1878
  3415.5	  1883
  3415.6	  1889
  3415.7	  1895
  3415.8	  1901
  3415.9	  1907
  3416.0	  1911
  3416.1	  1917
  3416.2	  1924
  3416.3	  1931
  3416.4	  1937
  3416.5	  1942
  3416.6	  1950
  3416.7	  1956
  3416.8	  1963
  3416.9	  1969
  3417.0	  1975
  3417.1	  1983
  3417.2	  1989
  3417.3	  1996
  3417.4	  1999
  3417.5	  2010
  3417.6	  2016
  3417.7	  2022
  3417.8	  2029
  3417.9	  2035
  3418.0	  2042
  3418.1	  2049
  3418.2	  2056
  3418.3	  2063
  3418.4	  2070
  3418.5	  2076
  3418.6	  2083
  3418.7	  2091
  3418.8	  2099
  3418.9	  2105
  3419.0	  2113
  3419.1	  2120
  3419.2	  2128
  3419.3	  2137
  3419.4	  2142
  3419.5	  2151
  3419.6	  2159
  3419.7	  2169
  3419.8	  2173
  3419.9	  2182
  3420.0	  2189
  3420.1	  2197
  3420.2	  2207
  3420.3	  2212
  3420.4	  2220
  3420.5	  2229
  3420.6	  2237
  3420.7	  2245
  3420.8	  2255
  3420.9	  2264
  3421.0	  2273
  3421.1	  2284
  3421.2	  2291
  3421.3	  2301
  3421.4	  2310
  3421.5	  2319
  3421.6	  2327
  3421.7	  2338
  3421.8	  2346
  3421.9	  2356
  3422.0	  2363
  3422.1	  2374
  3422.2	  2383
  3422.3	  2392
  3422.4	  2402
  3422.5	  2408
  3422.6	  2421
  3422.7	  2431
  3422.8	  2440
  3422.9	  2450
 3423.01	  2461
 3423.11	  2470
 3423.21	  2480
 3423.31	  2490
 3423.41	  2498
 3423.51	  2510
 3423.61	  2520
 3423.71	  2529
 3423.81	  2539
 3423.91	  2550
 3424.01	  2558
 3424.11	  2569
 3424.21	  2579
 3424.31	  2589
 3424.41	  2600
 3424.51	  2610
 3424.61	  2621
 3424.71	  2631
 3424.81	  2643
 3424.91	  2650
 3425.01	  2659
 3425.11	  2669
 3425.21	  2679
 3425.31	  2692
 3425.41	  2701
 3425.51	  2712
 3425.61	  2723
 3425.71	  2735
 3425.81	  2743
 3425.91	  2755
 3426.01	  2766
 3426.11	  2776
 3426.21	  2788
 3426.31	  2799
 3426.41	  2809
 3426.51	  2820
 3426.61	  2831
 3426.71	  2840
 3426.81	  2853
 3426.91	  2863
 3427.01	  2874
 3427.11	  2884
 3427.21	  2896
 3427.31	  2906
 3427.41	  2917
 3427.51	  2928
 3427.61	  2936
 3427.71	  2947
 3427.81	  2958
 3427.91	  2968
 3428.01	  2977
 3428.11	  2990
 3428.21	  2998
 3428.31	  3007
 3428.41	  3015
 3428.51	  3020
 3428.61	  3033
 3428.71	  3042
 3428.81	  3051
 3428.91	  3061
 3429.01	  3073
 3429.11	  3080
 3429.21	  3089
 3429.31	  3098
 3429.41	  3107
 3429.51	  3115
 3429.61	  3123
 3429.71	  3131
 3429.81	  3141
 3429.91	  3150
 3430.01	  3156
 3430.11	  3165
 3430.21	  3172
 3430.31	  3179
 3430.41	  3187
 3430.51	  3195
 3430.61	  3203
 3430.71	  3209
 3430.81	  3220
 3430.91	  3221
 3431.02	  3226
 3431.12	  3233
 3431.22	  3240
 3431.32	  3246
 3431.42	  3251
 3431.52	  3258
 3431.62	  3263
 3431.72	  3268
 3431.82	  3274
 3431.92	  3279
 3432.02	  3284
 3432.12	  3289
 3432.22	  3291
 3432.32	  3297
 3432.42	  3299
 3432.52	  3303
 3432.62	  3306
 3432.72	  3308
 3432.82	  3311
 3432.92	  3314
 3433.02	  3315
 3433.12	  3315
 3433.22	  3321
 3433.32	  3320
 3433.42	  3321
 3433.52	  3322
 3433.62	  3322
 3433.72	  3323
 3433.82	  3324
 3433.92	  3323
 3434.02	  3323
 3434.12	  3323
 3434.22	  3322
 3434.32	  3322
 3434.42	  3322
 3434.52	  3319
 3434.62	  3318
 3434.72	  3316
 3434.82	  3313
 3434.92	  3310
 3435.02	  3308
 3435.12	  3303
 3435.22	  3301
 3435.32	  3297
 3435.42	  3295
 3435.52	  3288
 3435.62	  3284
 3435.72	  3279
 3435.82	  3274
 3435.92	  3272
 3436.02	  3263
 3436.12	  3258
 3436.22	  3251
 3436.32	  3245
 3436.42	  3236
 3436.52	  3230
 3436.62	  3225
 3436.72	  3217
 3436.82	  3216
 3436.92	  3205
 3437.02	  3198
 3437.12	  3190
 3437.22	  3182
 3437.32	  3172
 3437.42	  3165
 3437.52	  3154
 3437.62	  3146
 3437.72	  3135
 3437.82	  3126
 3437.92	  3116
 3438.02	  3106
 3438.12	  3094
 3438.22	  3079
 3438.32	  3072
 3438.42	  3060
 3438.52	  3047
 3438.62	  3035
 3438.72	  3022
 3438.82	  3010
 3438.92	  2997
 3439.03	  2985
 3439.13	  2970
 3439.23	  2960
 3439.33	  2946
 3439.43	  2933
 3439.53	  2918
 3439.63	  2904
 3439.73	  2891
 3439.83	  2875
 3439.93	  2862
 3440.03	  2849
 3440.13	  2834
 3440.23	  2818
 3440.33	  2803
 3440.43	  2789
 3440.53	  2777
 3440.63	  2760
 3440.73	  2744
 3440.83	  2727
 3440.93	  2711
 3441.03	  2697
 3441.13	  2679
 3441.23	  2663
 3441.33	  2646
 3441.43	  2633
 3441.53	  2611
 3441.63	  2596
 3441.73	  2580
 3441.83	  2564
 3441.93	  2549
 3442.03	  2532
 3442.13	  2515
 3442.23	  2500
 3442.33	  2483
 3442.43	  2464
 3442.53	  2449
 3442.63	  2432
 3442.73	  2415
 3442.83	  2397
 3442.93	  2380
 3443.03	  2363
 3443.13	  2347
 3443.23	  2328
 3443.33	  2309
 3443.43	  2294
 3443.53	  2276
 3443.63	  2259
 3443.73	  2240
 3443.83	  2224
 3443.93	  2206
 3444.03	  2189
 3444.13	  2171
 3444.23	  2150
 3444.33	  2137
 3444.43	  2121
 3444.53	  2104
 3444.63	  2088
 3444.73	  2072
 3444.83	  2055
 3444.93	  2037
 3445.03	  2021
 3445.13	  2005
 3445.23	  1990
 3445.33	  1974
 3445.43	  1958
 3445.53	  1942
 3445.63	  1929
 3445.73	  1912
 3445.83	  1898
 3445.93	  1883
 3446.03	  1867
 3446.13	  1853
 3446.23	  1838
 3446.33	  1824
 3446.43	  1809
 3446.53	  1800
 3446.63	  1780
 3446.73	  1766
 3446.83	  1752
 3446.93	  1738
 3447.04	  1726
 3447.14	  1712
 3447.24	  1698
 3447.34	  1684
 3447.44	  1672
 3447.54	  1657
 3447.64	  1646
 3447.74	  1634
 3447.84	  1622
 3447.94	  1609
 3448.04	  1597
 3448.14	  1584
 3448.24	  1573
 3448.34	  1560
 3448.44	  1547
 3448.54	  1537
 3448.64	  1524
 3448.74	  1513
 3448.84	  1499
 3448.94	  1490
 3449.04	  1479
 3449.14	  1467
 3449.24	  1456
 3449.34	  1444
 3449.44	  1435
 3449.54	  1425
 3449.64	  1416
 3449.74	  1404
 3449.84	  1396
 3449.94	  1386
 3450.04	  1377
 3450.14	  1368
 3450.24	  1357
 3450.34	  1350
 3450.44	  1342
 3450.54	  1333
 3450.64	  1324
 3450.74	  1317
 3450.84	  1307
 3450.94	  1299
 3451.04	  1291
 3451.14	  1285
 3451.24	  1276
 3451.34	  1268
 3451.44	  1260
 3451.54	  1253
 3451.64	  1249
 3451.74	  1239
 3451.84	  1232
 3451.94	  1226
 3452.04	  1217
 3452.14	  1211
 3452.24	  1206
 3452.34	  1200
 3452.44	  1193
 3452.54	  1192
 3452.64	  1182
 3452.74	  1176
 3452.84	  1170
 3452.94	  1165
 3453.04	  1159
 3453.14	  1155
 3453.24	  1149
 3453.34	  1144
 3453.44	  1138
 3453.54	  1133
 3453.64	  1129
 3453.74	  1124
 3453.84	  1120
 3453.94	  1112
 3454.04	  1111
 3454.14	  1107
 3454.24	  1103
 3454.34	  1099
 3454.44	  1095
 3454.54	  1092
 3454.64	  1088
 3454.74	  1084
 3454.84	  1077
 3454.94	  1078
 3455.05	  1073
 3455.15	  1070
 3455.25	  1067
 3455.35	  1064
 3455.45	  1062
 3455.55	  1060
 3455.65	  1057
 3455.75	  1055
 3455.85	  1052
 3455.95	  1048
 3456.05	  1046
 3456.15	  1044
 3456.25	  1043
 3456.35	  1039
 3456.45	  1038
 3456.55	  1035
 3456.65	  1034
 3456.75	  1034
 3456.85	  1030
 3456.95	  1030
 3457.05	  1029
 3457.15	  1030
 3457.25	  1026
 3457.35	  1025
 3457.45	  1021
 3457.55	  1019
 3457.65	  1019
 3457.75	  1015
 3457.85	  1014
 3457.95	  1013
 3458.05	  1012
 3458.15	  1010
 3458.25	  1010
 3458.35	  1008
 3458.45	  1008
 3458.55	  1008
 3458.65	  1006
 3458.75	  1005
 3458.85	  1004
 3458.95	  1003
 3459.05	  1001
 3459.15	  1002
 3459.25	  1002
 3459.35	  1002
 3459.45	  1000
 3459.55	  1002
 3459.65	  1002
 3459.75	  1003
 3459.85	  1003
 3459.95	   999
 3460.05	  1002
 3460.15	  1002
 3460.25	  1001
 3460.35	  1001
 3460.45	  1002
 3460.55	  1001
 3460.65	  1002
 3460.75	  1002
 3460.85	  1001
 3460.95	  1003
 3461.05	  1003
 3461.15	  1003
 3461.25	  1004
 3461.35	  1005
 3461.45	  1004
 3461.55	  1006
 3461.65	  1006
 3461.75	  1006
 3461.85	  1007
 3461.95	  1007
 3462.05	  1008
 3462.15	  1009
 3462.25	  1014
 3462.35	  1010
 3462.45	  1009
 3462.55	  1010
 3462.65	  1010
 3462.75	  1013
 3462.85	  1012
 3462.95	  1013
 3463.06	  1014
 3463.16	  1016
 3463.26	  1015
 3463.36	  1016
 3463.46	  1017
 3463.56	  1018
 3463.66	  1019
 3463.76	  1020
 3463.86	  1022
 3463.96	  1024
 3464.06	  1024
 3464.16	  1024
 3464.26	  1027
 3464.36	  1027
 3464.46	  1028
 3464.56	  1028
 3464.66	  1031
 3464.76	  1032
 3464.86	  1034
 3464.96	  1036
 3465.06	  1035
 3465.16	  1038
 3465.26	  1040
 3465.36	  1040
 3465.46	  1041
 3465.56	  1044
 3465.66	  1044
 3465.76	  1046
 3465.86	  1047
 3465.96	  1045
 3466.06	  1049
 3466.16	  1051
 3466.26	  1052
 3466.36	  1053
 3466.46	  1056
 3466.56	  1055
 3466.66	  1057
 3466.76	  1057
 3466.86	  1060
 3466.96	  1061
 3467.06	  1061
 3467.16	  1063
 3467.26	  1064
 3467.36	  1068
 3467.46	  1067
 3467.56	  1069
 3467.66	  1070
 3467.76	  1071
 3467.86	  1072
 3467.96	  1074
 3468.06	  1076
 3468.16	  1077
 3468.26	  1084
 3468.36	  1081
 3468.46	  1081
 3468.56	  1082
 3468.66	  1082
 3468.76	  1083
 3468.86	  1085
 3468.96	  1085
 3469.06	  1087
 3469.16	  1088
 3469.26	  1089
 3469.36	  1092
 3469.46	  1093
 3469.56	  1095
 3469.66	  1094
 3469.76	  1099
 3469.86	  1100
 3469.96	  1101
 3470.06	  1103
 3470.16	  1103
 3470.26	  1106
 3470.36	  1107
 3470.46	  1108
 3470.56	  1106
 3470.66	  1112
 3470.76	  1112
 3470.86	  1113
 3470.96	  1115
 3471.07	  1115
 3471.17	  1118
 3471.27	  1119
 3471.37	  1121
 3471.47	  1124
 3471.57	  1126
 3471.67	  1127
 3471.77	  1130
 3471.87	  1132
 3471.97	  1132
 3472.07	  1135
 3472.17	  1136
 3472.27	  1138
 3472.37	  1139
 3472.47	  1142
 3472.57	  1140
 3472.67	  1141
 3472.77	  1142
 3472.87	  1146
 3472.97	  1144
 3473.07	  1146
 3473.17	  1147
 3473.27	  1148
 3473.37	  1152
 3473.47	  1151
 3473.57	  1153
 3473.67	  1155
 3473.77	  1157
 3473.87	  1157
 3473.97	  1160
 3474.07	  1161
 3474.17	  1162
 3474.27	  1166
 3474.37	  1164
 3474.47	  1165
 3474.57	  1166
 3474.67	  1167
 3474.77	  1166
 3474.87	  1169
 3474.97	  1170
 3475.07	  1171
 3475.17	  1171
 3475.27	  1174
 3475.37	  1175
 3475.47	  1177
 3475.57	  1179
 3475.67	  1176
 3475.77	  1182
 3475.87	  1183
 3475.97	  1184
 3476.07	  1185
 3476.17	  1186
 3476.27	  1187
 3476.37	  1189
 3476.47	  1191
 3476.57	  1190
 3476.67	  1195
 3476.77	  1195
 3476.87	  1196
 3476.97	  1197
 3477.07	  1199
 3477.17	  1199
 3477.27	  1201
 3477.37	  1202
 3477.47	  1205
 3477.57	  1206
 3477.67	  1206
 3477.77	  1208
 3477.87	  1209
 3477.97	  1214
 3478.07	  1211
 3478.17	  1213
 3478.27	  1215
 3478.37	  1216
 3478.47	  1219
 3478.57	  1218
 3478.67	  1220
 3478.77	  1221
 3478.87	  1225
 3478.97	  1223
 3479.08	  1225
 3479.18	  1226
 3479.28	  1227
 3479.38	  1230
 3479.48	  1230
 3479.58	  1231
 3479.68	  1232
 3479.78	  1233
 3479.88	  1233
 3479.98	  1236
 3480.08	  1237
 3480.18	  1239
 3480.28	  1240
 3480.38	  1241
 3480.48	  1242
 3480.58	  1243
 3480.68	  1244
 3480.78	  1243
 3480.88	  1246
 3480.98	  1246
 3481.08	  1247
 3481.18	  1246
 3481.28	  1250
 3481.38	  1251
 3481.48	  1252
 3481.58	  1254
 3481.68	  1251
 3481.78	  1255
 3481.88	  1256
 3481.98	  1257
 3482.08	  1258
 3482.18	  1261
 3482.28	  1262
 3482.38	  1263
 3482.48	  1264
 3482.58	  1265
 3482.68	  1266
 3482.78	  1266
 3482.88	  1267
 3482.98	  1267
 3483.08	  1270
 3483.18	  1268
 3483.28	  1270
 3483.38	  1270
 3483.48	  1271
 3483.58	  1272
 3483.68	  1274
 3483.78	  1275
 3483.88	  1276
 3483.98	  1283
 3484.08	  1279
 3484.18	  1280
 3484.28	  1281
 3484.38	  1283
 3484.48	  1284
 3484.58	  1285
 3484.68	  1286
 3484.78	  1287
 3484.88	  1289
 3484.98	  1288
 3485.08	  1290
 3485.18	  1291
 3485.28	  1292
 3485.38	  1293
 3485.48	  1296
 3485.58	  1296
 3485.68	  1298
 3485.78	  1298
 3485.88	  1297
 3485.98	  1299
 3486.08	  1299
 3486.18	  1300
 3486.28	  1299
 3486.38	  1303
 3486.48	  1303
 3486.58	  1304
 3486.68	  1304
 3486.78	  1303
 3486.88	  1305
 3486.98	  1306
 3487.09	  1307
 3487.19	  1307
 3487.29	  1310
 3487.39	  1311
 3487.49	  1312
 3487.59	  1313
 3487.69	  1313
 3487.79	  1317
 3487.89	  1319
 3487.99	  1320
 3488.09	  1321
 3488.19	  1325
 3488.29	  1323
 3488.39	  1325
 3488.49	  1326
 3488.59	  1329
 3488.69	  1328
 3488.79	  1329
 3488.89	  1330
 3488.99	  1330
 3489.09	  1333
 3489.19	  1331
 3489.29	  1332
 3489.39	  1333
 3489.49	  1333
 3489.59	  1334
 3489.69	  1335
 3489.79	  1336
 3489.89	  1338
 3489.99	  1342
 3490.09	  1339
 3490.19	  1340
 3490.29	  1341
 3490.39	  1341
 3490.49	  1342
 3490.59	  1344
 3490.69	  1344
 3490.79	  1346
 3490.89	  1346
 3490.99	  1347
 3491.09	  1349
 3491.19	  1349
 3491.29	  1350
 3491.39	  1347
 3491.49	  1352
 3491.59	  1354
 3491.69	  1355
 3491.79	  1356
 3491.89	  1358
 3491.99	  1359
 3492.09	  1359
 3492.19	  1361
 3492.29	  1358
 3492.39	  1363
 3492.49	  1363
 3492.59	  1364
 3492.69	  1365
 3492.79	  1366
 3492.89	  1367
 3492.99	  1369
 3493.09	  1369
 3493.19	  1370
 3493.29	  1371
 3493.39	  1371
 3493.49	  1372
 3493.59	  1372
 3493.69	  1374
 3493.79	  1373
 3493.89	  1373
 3493.99	  1374
 3494.09	  1375
 3494.19	  1378
 3494.29	  1377
 3494.39	  1378
 3494.49	  1379
 3494.59	  1383
 3494.69	  1381
 3494.79	  1383
 3494.89	  1385
 3494.99	  1387
  3495.1	  1389
  3495.2	  1389
  3495.3	  1390
  3495.4	  1390
  3495.5	  1391
  3495.6	  1390
  3495.7	  1393
  3495.8	  1393
  3495.9	  1394
  3496.0	  1396
  3496.1	  1396
  3496.2	  1397
  3496.3	  1398
  3496.4	  1400
  3496.5	  1399
  3496.6	  1402
  3496.7	  1403
  3496.8	  1404
  3496.9	  1402
  3497.0	  1406
  3497.1	  1406
  3497.2	  1407
  3497.3	  1408
  3497.4	  1404
  3497.5	  1409
  3497.6	  1411
  3497.7	  1411
  3497.8	  1412
  3497.9	  1414
  3498.0	  1414
  3498.1	  1415
  3498.2	  1416
  3498.3	  1416
  3498.4	  1419
  3498.5	  1419
  3498.6	  1420
  3498.7	  1421
  3498.8	  1423
  3498.9	  1422
  3499.0	  1424
  3499.1	  1424
  3499.2	  1425
  3499.3	  1426
  3499.4	  1427
  3499.5	  1428
  3499.6	  1430
  3499.7	  1435
  3499.8	  1433
  3499.9	  1434
  3500.0	  1435
  3500.1	  1436
  3500.2	  1438
  3500.3	  1437
  3500.4	  1439
  3500.5	  1439
  3500.6	  1442
  3500.7	  1442
  3500.8	  1444
  3500.9	  1445
  3501.0	  1446
  3501.1	  1446
  3501.2	  1448
  3501.3	  1449
  3501.4	  1450
  3501.5	  1452
  3501.6	  1452
  3501.7	  1455
  3501.8	  1456
  3501.9	  1458
  3502.0	  1456
  3502.1	  1461
  3502.2	  1461
  3502.3	  1462
  3502.4	  1463
  3502.5	  1462
  3502.6	  1465
  3502.7	  1466
  3502.8	  1467
  3502.9	  1467
 3503.01	  1470
 3503.11	  1470
 3503.21	  1472
 3503.31	  1473
 3503.41	  1471
 3503.51	  1476
 3503.61	  1478
 3503.71	  1479
 3503.81	  1481
 3503.91	  1484
 3504.01	  1483
 3504.11	  1485
 3504.21	  1486
 3504.31	  1489
 3504.41	  1489
 3504.51	  1490
 3504.61	  1491
 3504.71	  1493
 3504.81	  1496
 3504.91	  1496
 3505.01	  1498
 3505.11	  1500
 3505.21	  1502
 3505.31	  1503
 3505.41	  1505
 3505.51	  1507
 3505.61	  1508
 3505.71	  1515
 3505.81	  1511
 3505.91	  1513
 3506.01	  1515
 3506.11	  1516
 3506.21	  1517
 3506.31	  1520
 3506.41	  1520
 3506.51	  1522
 3506.61	  1524
 3506.71	  1525
 3506.81	  1527
 3506.91	  1529
 3507.01	  1531
 3507.11	  1529
 3507.21	  1535
 3507.31	  1536
 3507.41	  1538
 3507.51	  1540
 3507.61	  1542
 3507.71	  1545
 3507.81	  1547
 3507.91	  1549
 3508.01	  1547
 3508.11	  1553
 3508.21	  1554
 3508.31	  1556
 3508.41	  1558
 3508.51	  1559
 3508.61	  1562
 3508.71	  1564
 3508.81	  1565
 3508.91	  1567
 3509.01	  1570
 3509.11	  1571
 3509.21	  1573
 3509.31	  1576
 3509.41	  1579
 3509.51	  1580
 3509.61	  1582
 3509.71	  1585
 3509.81	  1587
 3509.91	  1591
 3510.01	  1591
 3510.11	  1593
 3510.21	  1595
 3510.31	  1600
 3510.41	  1599
 3510.51	  1602
 3510.61	  1604
 3510.71	  1606
 3510.81	  1610
 3510.91	  1611
 3511.02	  1613
 3511.12	  1616
 3511.22	  1618
 3511.32	  1620
 3511.42	  1624
 3511.52	  1626
 3511.62	  1629
 3511.72	  1634
 3511.82	  1633
 3511.92	  1635
 3512.02	  1638
 3512.12	  1639
 3512.22	  1640
 3512.32	  1645
 3512.42	  1647
 3512.52	  1651
 3512.62	  1652
 3512.72	  1657
 3512.82	  1659
 3512.92	  1663
 3513.02	  1666
 3513.12	  1666
 3513.22	  1673
 3513.32	  1675
 3513.42	  1679
 3513.52	  1681
 3513.62	  1685
 3513.72	  1688
 3513.82	  1691
 3513.92	  1694
 3514.02	  1696
 3514.12	  1701
 3514.22	  1704
 3514.32	  1707
 3514.42	  1710
 3514.52	  1714
 3514.62	  1716
 3514.72	  1720
 3514.82	  1724
 3514.92	  1727
 3515.02	  1731
 3515.12	  1735
 3515.22	  1739
 3515.32	  1743
 3515.42	  1751
 3515.52	  1750
 3515.62	  1754
 3515.72	  1757
 3515.82	  1760
 3515.92	  1766
 3516.02	  1768
 3516.12	  1771
 3516.22	  1775
 3516.32	  1780
 3516.42	  1781
 3516.52	  1786
 3516.62	  1790
 3516.72	  1794
 3516.82	  1799
 3516.92	  1803
 3517.02	  1807
 3517.12	  1811
 3517.22	  1815
 3517.32	  1818
 3517.42	  1825
 3517.52	  1829
 3517.62	  1833
 3517.72	  1835
 3517.82	  1842
 3517.92	  1846
 3518.02	  1851
 3518.12	  1855
 3518.22	  1858
 3518.32	  1864
 3518.42	  1869
 3518.52	  1874
 3518.62	  1878
 3518.72	  1884
 3518.82	  1888
 3518.92	  1893
 3519.03	  1899
 3519.13	  1902
 3519.23	  1910
 3519.33	  1916
 3519.43	  1921
 3519.53	  1926
 3519.63	  1934
 3519.73	  1937
 3519.83	  1943
 3519.93	  1949
 3520.03	  1955
 3520.13	  1960
 3520.23	  1966
 3520.33	  1970
 3520.43	  1976
 3520.53	  1984
 3520.63	  1987
 3520.73	  1993
 3520.83	  1999
 3520.93	  2005
 3521.03	  2010
 3521.13	  2015
 3521.23	  2021
 3521.33	  2027
 3521.43	  2037
 3521.53	  2038
 3521.63	  2045
 3521.73	  2050
 3521.83	  2056
 3521.93	  2062
 3522.03	  2068
 3522.13	  2074
 3522.23	  2081
 3522.33	  2086
 3522.43	  2092
 3522.53	  2100
 3522.63	  2106
 3522.73	  2113
 3522.83	  2117
 3522.93	  2126
 3523.03	  2133
 3523.13	  2140
 3523.23	  2148
 3523.33	  2155
 3523.43	  2162
 3523.53	  2169
 3523.63	  2176
 3523.73	  2179
 3523.83	  2191
 3523.93	  2197
 3524.03	  2204
 3524.13	  2212
 3524.23	  2218
 3524.33	  2226
 3524.43	  2233
 3524.53	  2241
 3524.63	  2249
 3524.73	  2257
 3524.83	  2264
 3524.93	  2272
 3525.03	  2280
 3525.13	  2288
 3525.23	  2295
 3525.33	  2304
 3525.43	  2311
 3525.53	  2319
 3525.63	  2329
 3525.73	  2334
 3525.83	  2341
 3525.93	  2349
 3526.03	  2360
 3526.13	  2364
 3526.23	  2373
 3526.33	  2381
 3526.43	  2390
 3526.53	  2400
 3526.63	  2406
 3526.73	  2415
 3526.83	  2422
 3526.93	  2431
 3527.04	  2439
 3527.14	  2448
 3527.24	  2456
 3527.34	  2464
 3527.44	  2474
 3527.54	  2480
 3527.64	  2488
 3527.74	  2496
 3527.84	  2504
 3527.94	  2510
 3528.04	  2521
 3528.14	  2530
 3528.24	  2539
 3528.34	  2546
 3528.44	  2557
 3528.54	  2565
 3528.64	  2574
 3528.74	  2583
 3528.84	  2588
 3528.94	  2600
 3529.04	  2610
 3529.14	  2619
 3529.24	  2628
 3529.34	  2637
 3529.44	  2645
 3529.54	  2653
 3529.64	  2662
 3529.74	  2669
 3529.84	  2680
 3529.94	  2687
 3530.04	  2696
 3530.14	  2705
 3530.24	  2713
 3530.34	  2721
 3530.44	  2730
 3530.54	  2738
 3530.64	  2746
 3530.74	  2756
 3530.84	  2764
 3530.94	  2772
 3531.04	  2780
 3531.14	  2792
 3531.24	  2796
 3531.34	  2804
 3531.44	  2812
 3531.54	  2820
 3531.64	  2828
 3531.74	  2835
 3531.84	  2843
 3531.94	  2849
 3532.04	  2858
 3532.14	  2864
 3532.24	  2874
 3532.34	  2882
 3532.44	  2890
 3532.54	  2897
 3532.64	  2904
 3532.74	  2911
 3532.84	  2919
 3532.94	  2926
 3533.04	  2931
 3533.14	  2940
 3533.24	  2948
 3533.34	  2954
 3533.44	  2959
 3533.54	  2969
 3533.64	  2976
 3533.74	  2983
 3533.84	  2989
 3533.94	  2994
 3534.04	  3002
 3534.14	  3008
 3534.24	  3014
 3534.34	  3019
 3534.44	  3026
 3534.54	  3032
 3534.64	  3037
 3534.74	  3041
 3534.84	  3043
 3534.94	  3051
 3535.05	  3055
 3535.15	  3061
 3535.25	  3067
 3535.35	  3075
 3535.45	  3077
 3535.55	  3082
 3535.65	  3086
 3535.75	  3092
 3535.85	  3096
 3535.95	  3100
 3536.05	  3104
 3536.15	  3108
 3536.25	  3114
 3536.35	  3114
 3536.45	  3118
 3536.55	  3122
 3536.65	  3127
 3536.75	  3127
 3536.85	  3130
 3536.95	  3132
 3537.05	  3134
 3537.15	  3142
 3537.25	  3139
 3537.35	  3141
 3537.45	  3143
 3537.55	  3143
 3537.65	  3143
 3537.75	  3144
 3537.85	  3143
 3537.95	  3145
 3538.05	  3144
 3538.15	  3144
 3538.25	  3145
 3538.35	  3146
 3538.45	  3145
 3538.55	  3145
 3538.65	  3148
 3538.75	  3147
 3538.85	  3147
 3538.95	  3145
 3539.05	  3143
 3539.15	  3142
 3539.25	  3140
 3539.35	  3136
 3539.45	  3130
 3539.55	  3131
 3539.65	  3129
 3539.75	  3126
 3539.85	  3122
 3539.95	  3118
 3540.05	  3116
 3540.15	  3111
 3540.25	  3108
 3540.35	  3105
 3540.45	  3103
 3540.55	  3098
 3540.65	  3095
 3540.75	  3091
 3540.85	  3088
 3540.95	  3082
 3541.05	  3076
 3541.15	  3069
 3541.25	  3063
 3541.35	  3059
 3541.45	  3051
 3541.55	  3045
 3541.65	  3039
 3541.75	  3036
 3541.85	  3023
 3541.95	  3016
 3542.05	  3009
 3542.15	  3001
 3542.25	  2996
 3542.35	  2986
 3542.45	  2978
 3542.55	  2969
 3542.65	  2960
 3542.75	  2950
 3542.85	  2942
 3542.95	  2934
 3543.06	  2925
 3543.16	  2918
 3543.26	  2907
 3543.36	  2897
 3543.46	  2888
 3543.56	  2878
 3543.66	  2866
 3543.76	  2860
 3543.86	  2849
 3543.96	  2838
 3544.06	  2826
 3544.16	  2818
 3544.26	  2807
 3544.36	  2797
 3544.46	  2786
 3544.56	  2770
 3544.66	  2763
 3544.76	  2752
 3544.86	  2741
 3544.96	  2728
 3545.06	  2718
 3545.16	  2705
 3545.26	  2692
 3545.36	  2680
 3545.46	  2667
 3545.56	  2657
 3545.66	  2644
 3545.76	  2632
 3545.86	  2620
 3545.96	  2608
 3546.06	  2594
 3546.16	  2582
 3546.26	  2569
 3546.36	  2555
 3546.46	  2542
 3546.56	  2528
 3546.66	  2514
 3546.76	  2500
 3546.86	  2491
 3546.96	  2473
 3547.06	  2460
 3547.16	  2447
 3547.26	  2434
 3547.36	  2422
 3547.46	  2408
 3547.56	  2395
 3547.66	  2381
 3547.76	  2370
 3547.86	  2354
 3547.96	  2342
 3548.06	  2328
 3548.16	  2315
 3548.26	  2301
 3548.36	  2288
 3548.46	  2275
 3548.56	  2263
 3548.66	  2249
 3548.76	  2234
 3548.86	  2223
 3548.96	  2209
 3549.06	  2196
 3549.16	  2180
 3549.26	  2169
 3549.36	  2156
 3549.46	  2143
 3549.56	  2131
 3549.66	  2116
 3549.76	  2105
 3549.86	  2092
 3549.96	  2080
 3550.06	  2065
 3550.16	  2054
 3550.26	  2040
 3550.36	  2027
 3550.46	  2014
 3550.56	  1999
 3550.66	  1988
 3550.76	  1975
 3550.86	  1962
 3550.96	  1949
 3551.07	  1937
 3551.17	  1923
 3551.27	  1910
 3551.37	  1897
 3551.47	  1886
 3551.57	  1872
 3551.67	  1861
 3551.77	  1848
 3551.87	  1836
 3551.97	  1826
 3552.07	  1811
 3552.17	  1800
 3552.27	  1788
 3552.37	  1777
 3552.47	  1765
 3552.57	  1755
 3552.67	  1744
 3552.77	  1733
 3552.87	  1726
 3552.97	  1710
 3553.07	  1700
 3553.17	  1689
 3553.27	  1679
 3553.37	  1668
 3553.47	  1658
 3553.57	  1647
 3553.67	  1638
 3553.77	  1626
 3553.87	  1618
 3553.97	  1609
 3554.07	  1599
 3554.17	  1590
 3554.27	  1578
 3554.37	  1571
 3554.47	  1563
 3554.57	  1554
 3554.67	  1545
 3554.77	  1536
 3554.87	  1527
 3554.97	  1518
 3555.07	  1510
 3555.17	  1497
 3555.27	  1493
 3555.37	  1484
 3555.47	  1475
 3555.57	  1467
 3555.67	  1460
 3555.77	  1451
 3555.87	  1444
 3555.97	  1436
 3556.07	  1429
 3556.17	  1422
 3556.27	  1414
 3556.37	  1406
 3556.47	  1399
 3556.57	  1394
 3556.67	  1385
 3556.77	  1379
 3556.87	  1372
 3556.97	  1365
 3557.07	  1361
 3557.17	  1352
 3557.27	  1345
 3557.37	  1338
 3557.47	  1335
 3557.57	  1326
 3557.67	  1321
 3557.77	  1315
 3557.87	  1310
 3557.97	  1307
 3558.07	  1300
 3558.17	  1295
 3558.27	  1290
 3558.37	  1284
 3558.47	  1278
 3558.57	  1274
 3558.67	  1270
 3558.77	  1265
 3558.87	  1261
 3558.97	  1256
 3559.08	  1251
 3559.18	  1246
 3559.28	  1242
 3559.38	  1235
 3559.48	  1233
 3559.58	  1228
 3559.68	  1224
 3559.78	  1218
 3559.88	  1216
 3559.98	  1212
 3560.08	  1209
 3560.18	  1206
 3560.28	  1197
 3560.38	  1198
 3560.48	  1195
 3560.58	  1191
 3560.68	  1188
 3560.78	  1185
 3560.88	  1180
 3560.98	  1176
 3561.08	  1173
 3561.18	  1169
 3561.28	  1168
 3561.38	  1164
 3561.48	  1161
 3561.58	  1159
 3561.68	  1158
 3561.78	  1154
 3561.88	  1152
 3561.98	  1149
 3562.08	  1147
 3562.18	  1146
 3562.28	  1143
 3562.38	  1142
 3562.48	  1140
 3562.58	  1142
 3562.68	  1135
 3562.78	  1133
 3562.88	  1131
 3562.98	  1129
 3563.08	  1128
 3563.18	  1126
 3563.28	  1124
 3563.38	  1122
 3563.48	  1121
 3563.58	  1118
 3563.68	  1119
 3563.78	  1118
 3563.88	  1117
 3563.98	  1113
 3564.08	  1114
 3564.18	  1113
 3564.28	  1112
 3564.38	  1111
 3564.48	  1109
 3564.58	  1109
 3564.68	  1108
 3564.78	  1106
 3564.88	  1102
 3564.98	  1105
 3565.08	  1104
 3565.18	  1103
 3565.28	  1103
 3565.38	  1101
 3565.48	  1102
 3565.58	  1101
 3565.68	  1101
 3565.78	  1100
 3565.88	  1101
 3565.98	  1100
 3566.08	  1100
 3566.18	  1100
 3566.28	  1098
 3566.38	  1100
 3566.48	  1100
 3566.58	  1100
 3566.68	  1100
 3566.78	  1102
 3566.88	  1099
 3566.98	  1099
 3567.09	  1099
 3567.19	  1101
 3567.29	  1099
 3567.39	  1099
 3567.49	  1099
 3567.59	  1100
 3567.69	  1102
 3567.79	  1100
 3567.89	  1100
 3567.99	  1100
 3568.09	  1101
 3568.19	  1101
 3568.29	  1103
 3568.39	  1103
 3568.49	  1103
 3568.59	  1107
 3568.69	  1104
 3568.79	  1104
 3568.89	  1104
 3568.99	  1104
 3569.09	  1104
 3569.19	  1106
 3569.29	  1107
 3569.39	  1106
 3569.49	  1106
 3569.59	  1107
 3569.69	  1108
 3569.79	  1109
 3569.89	  1110
 3569.99	  1106
 3570.09	  1111
 3570.19	  1111
 3570.29	  1111
 3570.39	  1111
 3570.49	  1112
 3570.59	  1112
 3570.69	  1114
 3570.79	  1115
 3570.89	  1114
 3570.99	  1119
 3571.09	  1119
 3571.19	  1121
 3571.29	  1122
 3571.39	  1123
 3571.49	  1124
 3571.59	  1126
 3571.69	  1126
 3571.79	  1127
 3571.89	  1129
 3571.99	  1128
 3572.09	  1129
 3572.19	  1129
 3572.29	  1133
 3572.39	  1131
 3572.49	  1132
 3572.59	  1134
 3572.69	  1135
 3572.79	  1138
 3572.89	  1137
 3572.99	  1139
 3573.09	  1140
 3573.19	  1144
 3573.29	  1142
 3573.39	  1143
 3573.49	  1144
 3573.59	  1144
 3573.69	  1146
 3573.79	  1146
 3573.89	  1146
 3573.99	  1148
 3574.09	  1149
 3574.19	  1148
 3574.29	  1151
 3574.39	  1152
 3574.49	  1153
 3574.59	  1154
 3574.69	  1156
 3574.79	  1157
 3574.89	  1159
 3574.99	  1160
  3575.1	  1160
  3575.2	  1164
  3575.3	  1164
  3575.4	  1166
  3575.5	  1166
  3575.6	  1169
  3575.7	  1169
  3575.8	  1171
  3575.9	  1172
  3576.0	  1169
  3576.1	  1174
  3576.2	  1175
  3576.3	  1177
  3576.4	  1178
  3576.5	  1181
  3576.6	  1181
  3576.7	  1182
  3576.8	  1183
  3576.9	  1186
  3577.0	  1186
  3577.1	  1187
  3577.2	  1188
  3577.3	  1189
  3577.4	  1192
  3577.5	  1190
  3577.6	  1192
  3577.7	  1193
  3577.8	  1196
  3577.9	  1196
  3578.0	  1198
  3578.1	  1200
  3578.2	  1201
  3578.3	  1208
  3578.4	  1204
  3578.5	  1205
  3578.6	  1206
  3578.7	  1206
  3578.8	  1207
  3578.9	  1209
  3579.0	  1209
  3579.1	  1211
  3579.2	  1212
  3579.3	  1212
  3579.4	  1214
  3579.5	  1215
  3579.6	  1216
  3579.7	  1214
  3579.8	  1218
  3579.9	  1218
  3580.0	  1220
  3580.1	  1221
  3580.2	  1221
  3580.3	  1224
  3580.4	  1224
  3580.5	  1226
  3580.6	  1224
  3580.7	  1230
  3580.8	  1230
  3580.9	  1232
  3581.0	  1233
  3581.1	  1234
  3581.2	  1237
  3581.3	  1239
  3581.4	  1241
  3581.5	  1242
  3581.6	  1244
  3581.7	  1244
  3581.8	  1246
  3581.9	  1247
  3582.0	  1248
  3582.1	  1249
  3582.2	  1250
  3582.3	  1252
  3582.4	  1252
  3582.5	  1255
  3582.6	  1254
  3582.7	  1256
  3582.8	  1257
  3582.9	  1261
 3583.01	  1258
 3583.11	  1259
 3583.21	  1260
 3583.31	  1261
 3583.41	  1265
 3583.51	  1264
 3583.61	  1265
 3583.71	  1267
 3583.81	  1269
 3583.91	  1269
 3584.01	  1272
 3584.11	  1274
 3584.21	  1274
 3584.31	  1278
 3584.41	  1276
 3584.51	  1277
 3584.61	  1277
 3584.71	  1279
 3584.81	  1278
 3584.91	  1282
 3585.01	  1282
 3585.11	  1284
 3585.21	  1283
 3585.31	  1286
 3585.41	  1287
 3585.51	  1288
 3585.61	  1289
 3585.71	  1286
 3585.81	  1291
 3585.91	  1292
 3586.01	  1293
 3586.11	  1293
 3586.21	  1294
 3586.31	  1294
 3586.41	  1294
 3586.51	  1295
 3586.61	  1294
 3586.71	  1298
 3586.81	  1299
 3586.91	  1300
 3587.01	  1302
 3587.11	  1304
 3587.21	  1304
 3587.31	  1306
 3587.41	  1307
 3587.51	  1308
 3587.61	  1309
 3587.71	  1309
 3587.81	  1310
 3587.91	  1311
 3588.01	  1318
 3588.11	  1315
 3588.21	  1316
 3588.31	  1318
 3588.41	  1319
 3588.51	  1322
 3588.61	  1322
 3588.71	  1323
 3588.81	  1324
 3588.91	  1326
 3589.01	  1324
 3589.11	  1326
 3589.21	  1326
 3589.31	  1327
 3589.41	  1328
 3589.51	  1329
 3589.61	  1330
 3589.71	  1331
 3589.81	  1332
 3589.91	  1332
 3590.01	  1334
 3590.11	  1334
 3590.21	  1336
 3590.31	  1334
 3590.41	  1337
 3590.51	  1338
 3590.61	  1338
 3590.71	  1338
 3590.81	  1337
 3590.91	  1339
 3591.02	  1340
 3591.12	  1341
 3591.22	  1341
 3591.32	  1343
 3591.42	  1343
 3591.52	  1344
 3591.62	  1346
 3591.72	  1344
 3591.82	  1348
 3591.92	  1350
 3592.02	  1351
 3592.12	  1353
 3592.22	  1355
 3592.32	  1354
 3592.42	  1355
 3592.52	  1356
 3592.62	  1359
 3592.72	  1358
 3592.82	  1359
 3592.92	  1360
 3593.02	  1361
 3593.12	  1365
 3593.22	  1363
 3593.32	  1364
 3593.42	  1365
 3593.52	  1366
 3593.62	  1366
 3593.72	  1366
 3593.82	  1367
 3593.92	  1368
 3594.02	  1373
 3594.12	  1370
 3594.22	  1371
 3594.32	  1371
 3594.42	  1372
 3594.52	  1373
 3594.62	  1374
 3594.72	  1374
 3594.82	  1375
 3594.92	  1375
 3595.02	  1376
 3595.12	  1377
 3595.22	  1378
 3595.32	  1380
 3595.42	  1376
 3595.52	  1381
 3595.62	  1382
 3595.72	  1383
 3595.82	  1384
 3595.92	  1384
 3596.02	  1386
 3596.12	  1387
 3596.22	  1388
 3596.32	  1386
 3596.42	  1391
 3596.52	  1391
 3596.62	  1391
 3596.72	  1393
 3596.82	  1393
 3596.92	  1393
 3597.02	  1394
 3597.12	  1394
 3597.22	  1396
 3597.32	  1397
 3597.42	  1396
 3597.52	  1397
 3597.62	  1398
 3597.72	  1401
 3597.82	  1400
 3597.92	  1401
 3598.02	  1401
 3598.12	  1402
 3598.22	  1404
 3598.32	  1403
 3598.42	  1404
 3598.52	  1404
 3598.62	  1407
 3598.72	  1405
 3598.82	  1406
 3598.92	  1406
 3599.03	  1407
 3599.13	  1409
 3599.23	  1408
 3599.33	  1409
 3599.43	  1409
 3599.53	  1409
 3599.63	  1408
 3599.73	  1411
 3599.83	  1411
 3599.93	  1411
 3600.03	  1412
 3600.13	  1413
 3600.23	  1414
 3600.33	  1415
 3600.43	  1416
 3600.53	  1415
 3600.63	  1418
 3600.73	  1419
 3600.83	  1419
 3600.93	  1417
 3601.03	  1420
 3601.13	  1420
 3601.23	  1421
 3601.33	  1422
 3601.43	  1418
 3601.53	  1423
 3601.63	  1424
 3601.73	  1425
 3601.83	  1426
 3601.93	  1427
 3602.03	  1426
 3602.13	  1427
 3602.23	  1427
 3602.33	  1427
 3602.43	  1428
 3602.53	  1428
 3602.63	  1428
 3602.73	  1429
 3602.83	  1431
 3602.93	  1430
 3603.03	  1431
 3603.13	  1431
 3603.23	  1433
 3603.33	  1434
 3603.43	  1435
 3603.53	  1437
 3603.63	  1438
 3603.73	  1444
 3603.83	  1440
 3603.93	  1440
 3604.03	  1441
 3604.13	  1441
 3604.23	  1442
 3604.33	  1441
 3604.43	  1441
 3604.53	  1442
 3604.63	  1442
 3604.73	  1442
 3604.83	  1444
 3604.93	  1444
 3605.03	  1444
 3605.13	  1442
 3605.23	  1445
 3605.33	  1444
 3605.43	  1444
 3605.53	  1445
 3605.63	  1444
 3605.73	  1446
 3605.83	  1447
 3605.93	  1447
 3606.03	  1444
 3606.13	  1449
 3606.23	  1449
 3606.33	  1450
 3606.43	  1451
 3606.53	  1451
 3606.63	  1453
 3606.73	  1454
 3606.83	  1455
 3606.93	  1456
 3607.04	  1457
 3607.14	  1456
 3607.24	  1457
 3607.34	  1457
 3607.44	  1457
 3607.54	  1458
 3607.64	  1458
 3607.74	  1458
 3607.84	  1459
 3607.94	  1461
 3608.04	  1460
 3608.14	  1460
 3608.24	  1460
 3608.34	  1464
 3608.44	  1461
 3608.54	  1463
 3608.64	  1464
 3608.74	  1464
 3608.84	  1467
 3608.94	  1465
 3609.04	  1466
 3609.14	  1467
 3609.24	  1467
 3609.34	  1466
 3609.44	  1468
 3609.54	  1469
 3609.64	  1469
 3609.74	  1472
 3609.84	  1470
 3609.94	  1470
 3610.04	  1471
 3610.14	  1471
 3610.24	  1469
 3610.34	  1472
 3610.44	  1471
 3610.54	  1471
 3610.64	  1470
 3610.74	  1471
 3610.84	  1472
 3610.94	  1473
 3611.04	  1474
 3611.14	  1470
 3611.24	  1475
 3611.34	  1476
 3611.44	  1476
 3611.54	  1476
 3611.64	  1477
 3611.74	  1478
 3611.84	  1478
 3611.94	  1479
 3612.04	  1478
 3612.14	  1480
 3612.24	  1480
 3612.34	  1481
 3612.44	  1481
 3612.54	  1482
 3612.64	  1481
 3612.74	  1482
 3612.84	  1482
 3612.94	  1482
 3613.04	  1483
 3613.14	  1483
 3613.24	  1484
 3613.34	  1485
 3613.44	  1489
 3613.54	  1485
 3613.64	  1485
 3613.74	  1486
 3613.84	  1486
 3613.94	  1488
 3614.04	  1488
 3614.14	  1488
 3614.24	  1489
 3614.34	  1491
 3614.44	  1489
 3614.54	  1490
 3614.64	  1490
 3614.74	  1490
 3614.84	  1490
 3614.94	  1491
 3615.05	  1490
 3615.15	  1491
 3615.25	  1491
 3615.35	  1490
 3615.45	  1493
 3615.55	  1492
 3615.65	  1493
 3615.75	  1491
 3615.85	  1494
 3615.95	  1494
 3616.05	  1494
 3616.15	  1494
 3616.25	  1493
 3616.35	  1496
 3616.45	  1496
 3616.55	  1497
 3616.65	  1496
 3616.75	  1498
 3616.85	  1498
 3616.95	  1499
 3617.05	  1499
 3617.15	  1497
 3617.25	  1499
 3617.35	  1500
 3617.45	  1501
 3617.55	  1502
 3617.65	  1504
 3617.75	  1503
 3617.85	  1503
 3617.95	  1504
 3618.05	  1506
 3618.15	  1505
 3618.25	  1505
 3618.35	  1506
 3618.45	  1506
 3618.55	  1510
 3618.65	  1506
 3618.75	  1507
 3618.85	  1508
 3618.95	  1507
 3619.05	  1507
 3619.15	  1508
 3619.25	  1508
 3619.35	  1508
 3619.45	  1513
 3619.55	  1508
 3619.65	  1509
 3619.75	  1509
 3619.85	  1509
 3619.95	  1509
 3620.05	  1510
 3620.15	  1509
 3620.25	  1511
 3620.35	  1509
 3620.45	  1510
 3620.55	  1511
 3620.65	  1511
 3620.75	  1512
 3620.85	  1509
 3620.95	  1513
 3621.05	  1513
 3621.15	  1514
 3621.25	  1514
 3621.35	  1514
 3621.45	  1514
 3621.55	  1514
 3621.65	  1515
 3621.75	  1511
 3621.85	  1516
 3621.95	  1516
 3622.05	  1515
 3622.15	  1516
 3622.25	  1516
 3622.35	  1516
 3622.45	  1517
 3622.55	  1517
 3622.65	  1518
 3622.75	  1518
 3622.85	  1518
