field,G intensity,a.u.
  3019.0	  1991
  3019.1	  1991
  3019.2	  1991
  3019.3	  1990
  3019.4	  1992
  3019.5	  1990
  3019.6	  1990
  3019.7	  1991
  3019.8	  1995
  3019.9	  1993
  3020.0	  1996
  3020.1	  1998
  3020.2	  2001
  3020.3	  2002
  3020.4	  2006
  3020.5	  2009
  3020.6	  2012
  3020.7	  2015
  3020.8	  2021
  3020.9	  2023
  3021.0	  2027
  3021.1	  2032
  3021.2	  2038
  3021.3	  2039
  3021.4	  2044
  3021.5	  2047
  3021.6	  2051
  3021.7	  2055
  3021.8	  2059
  3021.9	  2063
  3022.0	  2068
  3022.1	  2073
  3022.2	  2079
  3022.3	  2082
  3022.4	  2087
  3022.5	  2093
  3022.6	  2099
  3022.7	  2103
  3022.8	  2108
  3022.9	  2114
 3023.01	  2119
 3023.11	  2124
 3023.21	  2129
 3023.31	  2134
 3023.41	  2139
 3023.51	  2144
 3023.61	  2149
 3023.71	  2154
 3023.81	  2159
 3023.91	  2164
 3024.01	  2169
 3024.11	  2173
 3024.21	  2180
 3024.31	  2184
 3024.41	  2191
 3024.51	  2197
 3024.61	  2201
 3024.71	  2207
 3024.81	  2213
 3024.91	  2219
 3025.01	  2224
 3025.11	  2231
 3025.21	  2237
 3025.31	  2242
 3025.41	  2248
 3025.51	  2255
 3025.61	  2262
 3025.71	  2267
 3025.81	  2273
 3025.91	  2282
 3026.01	  2285
 3026.11	  2292
 3026.21	  2298
 3026.31	  2305
 3026.41	  2311
 3026.51	  2318
 3026.61	  2324
 3026.71	  2330
 3026.81	  2336
 3026.91	  2345
 3027.01	  2352
 3027.11	  2360
 3027.21	  2368
 3027.31	  2379
 3027.41	  2383
 3027.51	  2390
 3027.61	  2397
 3027.71	  2403
 3027.81	  2408
 3027.91	  2417
 3028.01	  2424
 3028.11	  2431
 3028.21	  2436
 3028.31	  2446
 3028.41	  2453
 3028.51	  2460
 3028.61	  2468
 3028.71	  2478
 3028.81	  2483
 3028.91	  2491
 3029.01	  2500
 3029.11	  2506
 3029.21	  2511
 3029.31	  2520
 3029.41	  2527
 3029.51	  2534
 3029.61	  2539
 3029.71	  2549
 3029.81	  2556
 3029.91	  2564
 3030.01	  2572
 3030.11	  2583
 3030.21	  2589
 3030.31	  2597
 3030.41	  2606
 3030.51	  2614
 3030.61	  2622
 3030.71	  2633
 3030.81	  2640
 3030.91	  2648
 3031.02	  2653
 3031.12	  2665
 3031.22	  2672
 3031.32	  2680
 3031.42	  2688
 3031.52	  2698
 3031.62	  2704
 3031.72	  2712
 3031.82	  2719
 3031.92	  2727
 3032.02	  2734
 3032.12	  2743
 3032.22	  2751
 3032.32	  2759
 3032.42	  2764
 3032.52	  2774
 3032.62	  2780
 3032.72	  2788
 3032.82	  2795
 3032.92	  2803
 3033.02	  2809
 3033.12	  2817
 3033.22	  2825
 3033.32	  2832
 3033.42	  2838
 3033.52	  2847
 3033.62	  2854
 3033.72	  2861
 3033.82	  2865
 3033.92	  2876
 3034.02	  2883
 3034.12	  2892
 3034.22	  2898
 3034.32	  2908
 3034.42	  2914
 3034.52	  2920
 3034.62	  2927
 3034.72	  2934
 3034.82	  2939
 3034.92	  2947
 3035.02	  2953
 3035.12	  2959
 3035.22	  2963
 3035.32	  2973
 3035.42	  2979
 3035.52	  2985
 3035.62	  2990
 3035.72	  2996
 3035.82	  3002
 3035.92	  3007
 3036.02	  3011
 3036.12	  3018
 3036.22	  3021
 3036.32	  3029
 3036.42	  3035
 3036.52	  3040
 3036.62	  3045
 3036.72	  3051
 3036.82	  3055
 3036.92	  3058
 3037.02	  3062
 3037.12	  3066
 3037.22	  3070
 3037.32	  3075
 3037.42	  3079
 3037.52	  3083
 3037.62	  3085
 3037.72	  3089
 3037.82	  3093
 3037.92	  3095
 3038.02	  3097
 3038.12	  3101
 3038.22	  3104
 3038.32	  3106
 3038.42	  3108
 3038.52	  3110
 3038.62	  3112
 3038.72	  3114
 3038.82	  3115
 3038.92	  3117
 3039.03	  3116
 3039.13	  3118
 3039.23	  3119
 3039.33	  3119
 3039.43	  3123
 3039.53	  3122
 3039.63	  3122
 3039.73	  3121
 3039.83	  3121
 3039.93	  3120
 3040.03	  3120
 3040.13	  3120
 3040.23	  3119
 3040.33	  3118
 3040.43	  3115
 3040.53	  3113
 3040.63	  3112
 3040.73	  3108
 3040.83	  3108
 3040.93	  3104
 3041.03	  3100
 3041.13	  3097
 3041.23	  3092
 3041.33	  3086
 3041.43	  3083
 3041.53	  3080
 3041.63	  3074
 3041.73	  3069
 3041.83	  3064
 3041.93	  3059
 3042.03	  3055
 3042.13	  3051
 3042.23	  3049
 3042.33	  3040
 3042.43	  3033
 3042.53	  3027
 3042.63	  3020
 3042.73	  3011
 3042.83	  3006
 3042.93	  2999
 3043.03	  2991
 3043.13	  2985
 3043.23	  2977
 3043.33	  2969
 3043.43	  2962
 3043.53	  2953
 3043.63	  2948
 3043.73	  2935
 3043.83	  2926
 3043.93	  2918
 3044.03	  2911
 3044.13	  2898
 3044.23	  2890
 3044.33	  2880
 3044.43	  2869
 3044.53	  2859
 3044.63	  2848
 3044.73	  2837
 3044.83	  2827
 3044.93	  2816
 3045.03	  2810
 3045.13	  2793
 3045.23	  2782
 3045.33	  2770
 3045.43	  2758
 3045.53	  2743
 3045.63	  2734
 3045.73	  2722
 3045.83	  2708
 3045.93	  2695
 3046.03	  2683
 3046.13	  2667
 3046.23	  2654
 3046.33	  2641
 3046.43	  2633
 3046.53	  2614
 3046.63	  2601
 3046.73	  2587
 3046.83	  2573
 3046.93	  2558
 3047.04	  2547
 3047.14	  2534
 3047.24	  2520
 3047.34	  2506
 3047.44	  2495
 3047.54	  2479
 3047.64	  2466
 3047.74	  2453
 3047.84	  2443
 3047.94	  2424
 3048.04	  2409
 3048.14	  2394
 3048.24	  2380
 3048.34	  2364
 3048.44	  2352
 3048.54	  2336
 3048.64	  2321
 3048.74	  2306
 3048.84	  2293
 3048.94	  2277
 3049.04	  2263
 3049.14	  2249
 3049.24	  2238
 3049.34	  2220
 3049.44	  2205
 3049.54	  2191
 3049.64	  2176
 3049.74	  2160
 3049.84	  2148
 3049.94	  2133
 3050.04	  2119
 3050.14	  2103
 3050.24	  2090
 3050.34	  2075
 3050.44	  2061
 3050.54	  2047
 3050.64	  2036
 3050.74	  2019
 3050.84	  2006
 3050.94	  1991
 3051.04	  1977
 3051.14	  1963
 3051.24	  1951
 3051.34	  1937
 3051.44	  1925
 3051.54	  1910
 3051.64	  1899
 3051.74	  1885
 3051.84	  1873
 3051.94	  1860
 3052.04	  1850
 3052.14	  1835
 3052.24	  1823
 3052.34	  1810
 3052.44	  1798
 3052.54	  1786
 3052.64	  1774
 3052.74	  1761
 3052.84	  1749
 3052.94	  1734
 3053.04	  1725
 3053.14	  1711
 3053.24	  1700
 3053.34	  1688
 3053.44	  1678
 3053.54	  1666
 3053.64	  1655
 3053.74	  1643
 3053.84	  1632
 3053.94	  1621
 3054.04	  1610
 3054.14	  1599
 3054.24	  1589
 3054.34	  1576
 3054.44	  1568
 3054.54	  1557
 3054.64	  1547
 3054.74	  1537
 3054.84	  1527
 3054.94	  1517
 3055.05	  1508
 3055.15	  1498
 3055.25	  1488
 3055.35	  1480
 3055.45	  1471
 3055.55	  1462
 3055.65	  1453
 3055.75	  1442
 3055.85	  1436
 3055.95	  1428
 3056.05	  1420
 3056.15	  1412
 3056.25	  1402
 3056.35	  1395
 3056.45	  1387
 3056.55	  1380
 3056.65	  1372
 3056.75	  1365
 3056.85	  1357
 3056.95	  1349
 3057.05	  1342
 3057.15	  1334
 3057.25	  1329
 3057.35	  1324
 3057.45	  1317
 3057.55	  1310
 3057.65	  1303
 3057.75	  1299
 3057.85	  1293
 3057.95	  1287
 3058.05	  1281
 3058.15	  1277
 3058.25	  1270
 3058.35	  1264
 3058.45	  1259
 3058.55	  1252
 3058.65	  1248
 3058.75	  1244
 3058.85	  1239
 3058.95	  1234
 3059.05	  1227
 3059.15	  1226
 3059.25	  1222
 3059.35	  1218
 3059.45	  1214
 3059.55	  1212
 3059.65	  1206
 3059.75	  1202
 3059.85	  1198
 3059.95	  1193
 3060.05	  1189
 3060.15	  1186
 3060.25	  1182
 3060.35	  1180
 3060.45	  1174
 3060.55	  1175
 3060.65	  1172
 3060.75	  1171
 3060.85	  1168
 3060.95	  1168
 3061.05	  1164
 3061.15	  1161
 3061.25	  1159
 3061.35	  1156
 3061.45	  1153
 3061.55	  1152
 3061.65	  1150
 3061.75	  1148
 3061.85	  1142
 3061.95	  1145
 3062.05	  1143
 3062.15	  1142
 3062.25	  1141
 3062.35	  1141
 3062.45	  1138
 3062.55	  1137
 3062.65	  1136
 3062.75	  1136
 3062.85	  1133
 3062.95	  1134
 3063.06	  1133
 3063.16	  1132
 3063.26	  1127
 3063.36	  1130
 3063.46	  1129
 3063.56	  1128
 3063.66	  1127
 3063.76	  1128
 3063.86	  1125
 3063.96	  1125
 3064.06	  1124
 3064.16	  1127
 3064.26	  1124
 3064.36	  1125
 3064.46	  1126
 3064.56	  1125
 3064.66	  1122
 3064.76	  1126
 3064.86	  1126
 3064.96	  1126
 3065.06	  1126
 3065.16	  1129
 3065.26	  1128
 3065.36	  1128
 3065.46	  1128
 3065.56	  1131
 3065.66	  1128
 3065.76	  1130
 3065.86	  1130
 3065.96	  1130
 3066.06	  1126
 3066.16	  1131
 3066.26	  1131
 3066.36	  1131
 3066.46	  1132
 3066.56	  1135
 3066.66	  1134
 3066.76	  1135
 3066.86	  1135
 3066.96	  1138
 3067.06	  1136
 3067.16	  1138
 3067.26	  1139
 3067.36	  1139
 3067.46	  1137
 3067.56	  1142
 3067.66	  1142
 3067.76	  1143
 3067.86	  1144
 3067.96	  1146
 3068.06	  1145
 3068.16	  1147
 3068.26	  1148
 3068.36	  1153
 3068.46	  1150
 3068.56	  1152
 3068.66	  1153
 3068.76	  1154
 3068.86	  1153
 3068.96	  1158
 3069.06	  1159
 3069.16	  1161
 3069.26	  1162
 3069.36	  1164
 3069.46	  1164
 3069.56	  1165
 3069.66	  1166
 3069.76	  1170
 3069.86	  1168
 3069.96	  1170
 3070.06	  1171
 3070.16	  1172
 3070.26	  1171
 3070.36	  1174
 3070.46	  1175
 3070.56	  1177
 3070.66	  1179
 3070.76	  1182
 3070.86	  1182
 3070.96	  1185
 3071.07	  1186
 3071.17	  1191
 3071.27	  1190
 3071.37	  1192
 3071.47	  1193
 3071.57	  1195
 3071.67	  1194
 3071.77	  1198
 3071.87	  1200
 3071.97	  1201
 3072.07	  1203
 3072.17	  1207
 3072.27	  1207
 3072.37	  1209
 3072.47	  1210
 3072.57	  1214
 3072.67	  1213
 3072.77	  1215
 3072.87	  1216
 3072.97	  1218
 3073.07	  1218
 3073.17	  1221
 3073.27	  1223
 3073.37	  1225
 3073.47	  1227
 3073.57	  1228
 3073.67	  1229
 3073.77	  1230
 3073.87	  1231
 3073.97	  1235
 3074.07	  1235
 3074.17	  1237
 3074.27	  1238
 3074.37	  1240
 3074.47	  1242
 3074.57	  1243
 3074.67	  1245
 3074.77	  1247
 3074.87	  1248
 3074.97	  1250
 3075.07	  1251
 3075.17	  1252
 3075.27	  1254
 3075.37	  1256
 3075.47	  1256
 3075.57	  1258
 3075.67	  1259
 3075.77	  1261
 3075.87	  1263
 3075.97	  1264
 3076.07	  1265
 3076.17	  1266
 3076.27	  1268
 3076.37	  1270
 3076.47	  1272
 3076.57	  1274
 3076.67	  1275
 3076.77	  1277
 3076.87	  1279
 3076.97	  1281
 3077.07	  1282
 3077.17	  1284
 3077.27	  1287
 3077.37	  1287
 3077.47	  1289
 3077.57	  1290
 3077.67	  1291
 3077.77	  1293
 3077.87	  1295
 3077.97	  1296
 3078.07	  1298
 3078.17	  1299
 3078.27	  1300
 3078.37	  1301
 3078.47	  1302
 3078.57	  1305
 3078.67	  1309
 3078.77	  1308
 3078.87	  1311
 3078.97	  1312
 3079.08	  1313
 3079.18	  1315
 3079.28	  1317
 3079.38	  1318
 3079.48	  1319
 3079.58	  1319
 3079.68	  1323
 3079.78	  1323
 3079.88	  1324
 3079.98	  1325
 3080.08	  1329
 3080.18	  1328
 3080.28	  1329
 3080.38	  1330
 3080.48	  1331
 3080.58	  1332
 3080.68	  1334
 3080.78	  1335
 3080.88	  1336
 3080.98	  1335
 3081.08	  1339
 3081.18	  1340
 3081.28	  1342
 3081.38	  1343
 3081.48	  1346
 3081.58	  1345
 3081.68	  1346
 3081.78	  1348
 3081.88	  1349
 3081.98	  1350
 3082.08	  1352
 3082.18	  1354
 3082.28	  1356
 3082.38	  1354
 3082.48	  1359
 3082.58	  1360
 3082.68	  1361
 3082.78	  1362
 3082.88	  1366
 3082.98	  1365
 3083.08	  1366
 3083.18	  1368
 3083.28	  1370
 3083.38	  1370
 3083.48	  1373
 3083.58	  1374
 3083.68	  1375
 3083.78	  1372
 3083.88	  1376
 3083.98	  1377
 3084.08	  1378
 3084.18	  1379
 3084.28	  1382
 3084.38	  1381
 3084.48	  1383
 3084.58	  1384
 3084.68	  1385
 3084.78	  1384
 3084.88	  1387
 3084.98	  1388
 3085.08	  1389
 3085.18	  1387
 3085.28	  1392
 3085.38	  1391
 3085.48	  1393
 3085.58	  1394
 3085.68	  1398
 3085.78	  1396
 3085.88	  1398
 3085.98	  1399
 3086.08	  1400
 3086.18	  1399
 3086.28	  1402
 3086.38	  1403
 3086.48	  1404
 3086.58	  1401
 3086.68	  1407
 3086.78	  1407
 3086.88	  1409
 3086.98	  1411
 3087.09	  1413
 3087.19	  1413
 3087.29	  1414
 3087.39	  1416
 3087.49	  1416
 3087.59	  1415
 3087.69	  1418
 3087.79	  1419
 3087.89	  1420
 3087.99	  1418
 3088.09	  1423
 3088.19	  1423
 3088.29	  1424
 3088.39	  1425
 3088.49	  1428
 3088.59	  1427
 3088.69	  1429
 3088.79	  1430
 3088.89	  1430
 3088.99	  1430
 3089.09	  1434
 3089.19	  1434
 3089.29	  1434
 3089.39	  1433
 3089.49	  1437
 3089.59	  1438
 3089.69	  1439
 3089.79	  1441
 3089.89	  1442
 3089.99	  1442
 3090.09	  1444
 3090.19	  1444
 3090.29	  1445
 3090.39	  1445
 3090.49	  1448
 3090.59	  1448
 3090.69	  1449
 3090.79	  1449
 3090.89	  1451
 3090.99	  1452
 3091.09	  1453
 3091.19	  1454
 3091.29	  1455
 3091.39	  1455
 3091.49	  1457
 3091.59	  1458
 3091.69	  1459
 3091.79	  1460
 3091.89	  1462
 3091.99	  1463
 3092.09	  1464
 3092.19	  1464
 3092.29	  1465
 3092.39	  1466
 3092.49	  1467
 3092.59	  1468
 3092.69	  1468
 3092.79	  1469
 3092.89	  1470
 3092.99	  1470
 3093.09	  1471
 3093.19	  1471
 3093.29	  1473
 3093.39	  1473
 3093.49	  1475
 3093.59	  1476
 3093.69	  1477
 3093.79	  1478
 3093.89	  1479
 3093.99	  1480
 3094.09	  1480
 3094.19	  1482
 3094.29	  1483
 3094.39	  1484
 3094.49	  1484
 3094.59	  1484
 3094.69	  1486
 3094.79	  1486
 3094.89	  1487
 3094.99	  1489
  3095.1	  1490
  3095.2	  1490
  3095.3	  1491
  3095.4	  1492
  3095.5	  1491
  3095.6	  1493
  3095.7	  1494
  3095.8	  1495
  3095.9	  1496
  3096.0	  1497
  3096.1	  1498
  3096.2	  1499
  3096.3	  1499
  3096.4	  1503
  3096.5	  1502
  3096.6	  1503
  3096.7	  1504
  3096.8	  1506
  3096.9	  1505
  3097.0	  1508
  3097.1	  1509
  3097.2	  1509
  3097.3	  1510
  3097.4	  1510
  3097.5	  1511
  3097.6	  1512
  3097.7	  1512
  3097.8	  1516
  3097.9	  1514
  3098.0	  1515
  3098.1	  1516
  3098.2	  1517
  3098.3	  1517
  3098.4	  1519
  3098.5	  1520
  3098.6	  1520
  3098.7	  1521
  3098.8	  1522
  3098.9	  1523
  3099.0	  1525
  3099.1	  1525
  3099.2	  1530
  3099.3	  1527
  3099.4	  1528
  3099.5	  1529
  3099.6	  1530
  3099.7	  1529
  3099.8	  1532
  3099.9	  1533
  3100.0	  1534
  3100.1	  1535
  3100.2	  1537
  3100.3	  1537
  3100.4	  1538
  3100.5	  1539
  3100.6	  1545
  3100.7	  1542
  3100.8	  1543
  3100.9	  1544
  3101.0	  1545
  3101.1	  1544
  3101.2	  1547
  3101.3	  1549
  3101.4	  1549
  3101.5	  1551
  3101.6	  1552
  3101.7	  1552
  3101.8	  1553
  3101.9	  1555
  3102.0	  1560
  3102.1	  1557
  3102.2	  1558
  3102.3	  1559
  3102.4	  1561
  3102.5	  1560
  3102.6	  1563
  3102.7	  1565
  3102.8	  1565
  3102.9	  1567
 3103.01	  1569
 3103.11	  1568
 3103.21	  1570
 3103.31	  1570
 3103.41	  1577
 3103.51	  1573
 3103.61	  1574
 3103.71	  1575
 3103.81	  1576
 3103.91	  1575
 3104.01	  1579
 3104.11	  1581
 3104.21	  1581
 3104.31	  1583
 3104.41	  1585
 3104.51	  1584
 3104.61	  1585
 3104.71	  1586
 3104.81	  1593
 3104.91	  1589
 3105.01	  1591
 3105.11	  1592
 3105.21	  1594
 3105.31	  1593
 3105.41	  1597
 3105.51	  1598
 3105.61	  1599
 3105.71	  1599
 3105.81	  1603
 3105.91	  1602
 3106.01	  1604
 3106.11	  1606
 3106.21	  1612
 3106.31	  1609
 3106.41	  1611
 3106.51	  1613
 3106.61	  1614
 3106.71	  1614
 3106.81	  1618
 3106.91	  1619
 3107.01	  1621
 3107.11	  1622
 3107.21	  1626
 3107.31	  1627
 3107.41	  1629
 3107.51	  1630
 3107.61	  1635
 3107.71	  1632
 3107.81	  1634
 3107.91	  1635
 3108.01	  1636
 3108.11	  1637
 3108.21	  1640
 3108.31	  1641
 3108.41	  1643
 3108.51	  1644
 3108.61	  1648
 3108.71	  1649
 3108.81	  1651
 3108.91	  1654
 3109.01	  1659
 3109.11	  1657
 3109.21	  1660
 3109.31	  1662
 3109.41	  1664
 3109.51	  1665
 3109.61	  1669
 3109.71	  1671
 3109.81	  1674
 3109.91	  1673
 3110.01	  1678
 3110.11	  1679
 3110.21	  1683
 3110.31	  1685
 3110.41	  1690
 3110.51	  1689
 3110.61	  1691
 3110.71	  1693
 3110.81	  1695
 3110.91	  1696
 3111.02	  1700
 3111.12	  1702
 3111.22	  1705
 3111.32	  1706
 3111.42	  1712
 3111.52	  1713
 3111.62	  1715
 3111.72	  1718
 3111.82	  1722
 3111.92	  1723
 3112.02	  1726
 3112.12	  1728
 3112.22	  1730
 3112.32	  1734
 3112.42	  1736
 3112.52	  1739
 3112.62	  1742
 3112.72	  1743
 3112.82	  1748
 3112.92	  1750
 3113.02	  1754
 3113.12	  1757
 3113.22	  1760
 3113.32	  1763
 3113.42	  1765
 3113.52	  1768
 3113.62	  1771
 3113.72	  1774
 3113.82	  1777
 3113.92	  1780
 3114.02	  1784
 3114.12	  1785
 3114.22	  1790
 3114.32	  1794
 3114.42	  1797
 3114.52	  1800
 3114.62	  1804
 3114.72	  1807
 3114.82	  1811
 3114.92	  1815
 3115.02	  1819
 3115.12	  1823
 3115.22	  1826
 3115.32	  1831
 3115.42	  1836
 3115.52	  1838
 3115.62	  1844
 3115.72	  1849
 3115.82	  1853
 3115.92	  1857
 3116.02	  1859
 3116.12	  1864
 3116.22	  1868
 3116.32	  1872
 3116.42	  1876
 3116.52	  1881
 3116.62	  1885
 3116.72	  1889
 3116.82	  1894
 3116.92	  1897
 3117.02	  1903
 3117.12	  1908
 3117.22	  1912
 3117.32	  1917
 3117.42	  1920
 3117.52	  1927
 3117.62	  1931
 3117.72	  1937
 3117.82	  1941
 3117.92	  1948
 3118.02	  1952
 3118.12	  1957
 3118.22	  1962
 3118.32	  1966
 3118.42	  1972
 3118.52	  1978
 3118.62	  1984
 3118.72	  1990
 3118.82	  1994
 3118.92	  2003
 3119.03	  2009
 3119.13	  2015
 3119.23	  2021
 3119.33	  2028
 3119.43	  2033
 3119.53	  2039
 3119.63	  2045
 3119.73	  2051
 3119.83	  2058
 3119.93	  2064
 3120.03	  2071
 3120.13	  2077
 3120.23	  2081
 3120.33	  2091
 3120.43	  2098
 3120.53	  2105
 3120.63	  2111
 3120.73	  2120
 3120.83	  2125
 3120.93	  2131
 3121.03	  2138
 3121.13	  2145
 3121.23	  2151
 3121.33	  2158
 3121.43	  2166
 3121.53	  2173
 3121.63	  2177
 3121.73	  2189
 3121.83	  2197
 3121.93	  2205
 3122.03	  2212
 3122.13	  2222
 3122.23	  2228
 3122.33	  2235
 3122.43	  2243
 3122.53	  2251
 3122.63	  2257
 3122.73	  2267
 3122.83	  2275
 3122.93	  2284
 3123.03	  2287
 3123.13	  2300
 3123.23	  2309
 3123.33	  2319
 3123.43	  2328
 3123.53	  2340
 3123.63	  2346
 3123.73	  2356
 3123.83	  2364
 3123.93	  2376
 3124.03	  2382
 3124.13	  2393
 3124.23	  2402
 3124.33	  2411
 3124.43	  2417
 3124.53	  2431
 3124.63	  2440
 3124.73	  2450
 3124.83	  2460
 3124.93	  2472
 3125.03	  2480
 3125.13	  2491
 3125.23	  2501
 3125.33	  2513
 3125.43	  2520
 3125.53	  2531
 3125.63	  2542
 3125.73	  2551
 3125.83	  2557
 3125.93	  2572
 3126.03	  2582
 3126.13	  2593
 3126.23	  2603
 3126.33	  2614
 3126.43	  2621
 3126.53	  2631
 3126.63	  2642
 3126.73	  2654
 3126.83	  2661
 3126.93	  2673
 3127.04	  2684
 3127.14	  2695
 3127.24	  2702
 3127.34	  2717
 3127.44	  2726
 3127.54	  2737
 3127.64	  2747
 3127.74	  2760
 3127.84	  2769
 3127.94	  2780
 3128.04	  2790
 3128.14	  2804
 3128.24	  2813
 3128.34	  2825
 3128.44	  2836
 3128.54	  2846
 3128.64	  2854
 3128.74	  2869
 3128.84	  2880
 3128.94	  2891
 3129.04	  2903
 3129.14	  2915
 3129.24	  2923
 3129.34	  2935
 3129.44	  2945
 3129.54	  2960
 3129.64	  2968
 3129.74	  2979
 3129.84	  2989
 3129.94	  2999
 3130.04	  3006
 3130.14	  3019
 3130.24	  3028
 3130.34	  3037
 3130.44	  3046
 3130.54	  3057
 3130.64	  3064
 3130.74	  3076
 3130.84	  3084
 3130.94	  3096
 3131.04	  3102
 3131.14	  3111
 3131.24	  3120
 3131.34	  3128
 3131.44	  3135
 3131.54	  3148
 3131.64	  3157
 3131.74	  3165
 3131.84	  3174
 3131.94	  3184
 3132.04	  3191
 3132.14	  3200
 3132.24	  3206
 3132.34	  3217
 3132.44	  3222
 3132.54	  3228
 3132.64	  3234
 3132.74	  3241
 3132.84	  3245
 3132.94	  3253
 3133.04	  3259
 3133.14	  3265
 3133.24	  3270
 3133.34	  3276
 3133.44	  3279
 3133.54	  3283
 3133.64	  3287
 3133.74	  3294
 3133.84	  3296
 3133.94	  3301
 3134.04	  3304
 3134.14	  3308
 3134.24	  3309
 3134.34	  3313
 3134.44	  3316
 3134.54	  3317
 3134.64	  3321
 3134.74	  3324
 3134.84	  3326
 3134.94	  3326
 3135.05	  3328
 3135.15	  3330
 3135.25	  3326
 3135.35	  3325
 3135.45	  3324
 3135.55	  3325
 3135.65	  3322
 3135.75	  3322
 3135.85	  3320
 3135.95	  3317
 3136.05	  3315
 3136.15	  3312
 3136.25	  3308
 3136.35	  3305
 3136.45	  3301
 3136.55	  3299
 3136.65	  3292
 3136.75	  3287
 3136.85	  3282
 3136.95	  3276
 3137.05	  3270
 3137.15	  3264
 3137.25	  3259
 3137.35	  3250
 3137.45	  3243
 3137.55	  3237
 3137.65	  3229
 3137.75	  3220
 3137.85	  3213
 3137.95	  3205
 3138.05	  3196
 3138.15	  3187
 3138.25	  3178
 3138.35	  3167
 3138.45	  3157
 3138.55	  3144
 3138.65	  3131
 3138.75	  3120
 3138.85	  3108
 3138.95	  3096
 3139.05	  3083
 3139.15	  3070
 3139.25	  3058
 3139.35	  3045
 3139.45	  3033
 3139.55	  3021
 3139.65	  3007
 3139.75	  2994
 3139.85	  2982
 3139.95	  2967
 3140.05	  2952
 3140.15	  2937
 3140.25	  2922
 3140.35	  2907
 3140.45	  2891
 3140.55	  2875
 3140.65	  2860
 3140.75	  2843
 3140.85	  2827
 3140.95	  2811
 3141.05	  2792
 3141.15	  2775
 3141.25	  2760
 3141.35	  2741
 3141.45	  2723
 3141.55	  2705
 3141.65	  2687
 3141.75	  2668
 3141.85	  2650
 3141.95	  2632
 3142.05	  2613
 3142.15	  2593
 3142.25	  2575
 3142.35	  2555
 3142.45	  2535
 3142.55	  2516
 3142.65	  2500
 3142.75	  2477
 3142.85	  2457
 3142.95	  2437
 3143.06	  2417
 3143.16	  2396
 3143.26	  2378
 3143.36	  2358
 3143.46	  2338
 3143.56	  2316
 3143.66	  2299
 3143.76	  2279
 3143.86	  2259
 3143.96	  2240
 3144.06	  2224
 3144.16	  2202
 3144.26	  2183
 3144.36	  2164
 3144.46	  2145
 3144.56	  2126
 3144.66	  2109
 3144.76	  2090
 3144.86	  2072
 3144.96	  2051
 3145.06	  2036
 3145.16	  2016
 3145.26	  1998
 3145.36	  1981
 3145.46	  1966
 3145.56	  1945
 3145.66	  1927
 3145.76	  1909
 3145.86	  1890
 3145.96	  1872
 3146.06	  1855
 3146.16	  1837
 3146.26	  1819
 3146.36	  1799
 3146.46	  1785
 3146.56	  1766
 3146.66	  1749
 3146.76	  1732
 3146.86	  1717
 3146.96	  1698
 3147.06	  1681
 3147.16	  1666
 3147.26	  1649
 3147.36	  1632
 3147.46	  1618
 3147.56	  1601
 3147.66	  1586
 3147.76	  1568
 3147.86	  1557
 3147.96	  1542
 3148.06	  1528
 3148.16	  1514
 3148.26	  1503
 3148.36	  1487
 3148.46	  1474
 3148.56	  1462
 3148.66	  1450
 3148.76	  1437
 3148.86	  1427
 3148.96	  1414
 3149.06	  1403
 3149.16	  1389
 3149.26	  1382
 3149.36	  1370
 3149.46	  1360
 3149.56	  1349
 3149.66	  1341
 3149.76	  1328
 3149.86	  1319
 3149.96	  1310
 3150.06	  1300
 3150.16	  1289
 3150.26	  1281
 3150.36	  1271
 3150.46	  1262
 3150.56	  1251
 3150.66	  1247
 3150.76	  1238
 3150.86	  1230
 3150.96	  1221
 3151.07	  1215
 3151.17	  1205
 3151.27	  1197
 3151.37	  1190
 3151.47	  1183
 3151.57	  1175
 3151.67	  1170
 3151.77	  1163
 3151.87	  1157
 3151.97	  1148
 3152.07	  1145
 3152.17	  1138
 3152.27	  1133
 3152.37	  1126
 3152.47	  1121
 3152.57	  1114
 3152.67	  1109
 3152.77	  1104
 3152.87	  1099
 3152.97	  1092
 3153.07	  1090
 3153.17	  1085
 3153.27	  1081
 3153.37	  1074
 3153.47	  1074
 3153.57	  1070
 3153.67	  1067
 3153.77	  1064
 3153.87	  1063
 3153.97	  1058
 3154.07	  1054
 3154.17	  1051
 3154.27	  1047
 3154.37	  1044
 3154.47	  1042
 3154.57	  1039
 3154.67	  1037
 3154.77	  1032
 3154.87	  1034
 3154.97	  1032
 3155.07	  1031
 3155.17	  1029
 3155.27	  1028
 3155.37	  1025
 3155.47	  1024
 3155.57	  1022
 3155.67	  1022
 3155.77	  1018
 3155.87	  1018
 3155.97	  1017
 3156.07	  1016
 3156.17	  1013
 3156.27	  1015
 3156.37	  1013
 3156.47	  1013
 3156.57	  1012
 3156.67	  1012
 3156.77	  1011
 3156.87	  1011
 3156.97	  1011
 3157.07	  1011
 3157.17	  1010
 3157.27	  1010
 3157.37	  1011
 3157.47	  1010
 3157.57	  1009
 3157.67	  1011
 3157.77	  1010
 3157.87	  1010
 3157.97	  1011
 3158.07	  1011
 3158.17	  1011
 3158.27	  1013
 3158.37	  1013
 3158.47	  1013
 3158.57	  1013
 3158.67	  1015
 3158.77	  1016
 3158.87	  1016
 3158.97	  1016
 3159.08	  1018
 3159.18	  1018
 3159.28	  1019
 3159.38	  1020
 3159.48	  1020
 3159.58	  1021
 3159.68	  1024
 3159.78	  1025
 3159.88	  1027
 3159.98	  1028
 3160.08	  1029
 3160.18	  1031
 3160.28	  1032
 3160.38	  1034
 3160.48	  1035
 3160.58	  1036
 3160.68	  1036
 3160.78	  1038
 3160.88	  1039
 3160.98	  1042
 3161.08	  1044
 3161.18	  1045
 3161.28	  1047
 3161.38	  1048
 3161.48	  1050
 3161.58	  1053
 3161.68	  1055
 3161.78	  1059
 3161.88	  1059
 3161.98	  1060
 3162.08	  1062
 3162.18	  1064
 3162.28	  1065
 3162.38	  1067
 3162.48	  1070
 3162.58	  1072
 3162.68	  1074
 3162.78	  1076
 3162.88	  1077
 3162.98	  1078
 3163.08	  1080
 3163.18	  1084
 3163.28	  1083
 3163.38	  1085
 3163.48	  1087
 3163.58	  1090
 3163.68	  1091
 3163.78	  1094
 3163.88	  1097
 3163.98	  1098
 3164.08	  1100
 3164.18	  1102
 3164.28	  1103
 3164.38	  1105
 3164.48	  1107
 3164.58	  1112
 3164.68	  1110
 3164.78	  1112
 3164.88	  1114
 3164.98	  1116
 3165.08	  1117
 3165.18	  1120
 3165.28	  1123
 3165.38	  1125
 3165.48	  1128
 3165.58	  1131
 3165.68	  1131
 3165.78	  1134
 3165.88	  1136
 3165.98	  1142
 3166.08	  1140
 3166.18	  1142
 3166.28	  1144
 3166.38	  1146
 3166.48	  1146
 3166.58	  1150
 3166.68	  1153
 3166.78	  1155
 3166.88	  1158
 3166.98	  1161
 3167.09	  1162
 3167.19	  1165
 3167.29	  1167
 3167.39	  1174
 3167.49	  1170
 3167.59	  1172
 3167.69	  1174
 3167.79	  1176
 3167.89	  1176
 3167.99	  1181
 3168.09	  1182
 3168.19	  1184
 3168.29	  1187
 3168.39	  1188
 3168.49	  1188
 3168.59	  1191
 3168.69	  1191
 3168.79	  1198
 3168.89	  1196
 3168.99	  1198
 3169.09	  1200
 3169.19	  1202
 3169.29	  1202
 3169.39	  1206
 3169.49	  1208
 3169.59	  1210
 3169.69	  1211
 3169.79	  1214
 3169.89	  1215
 3169.99	  1217
 3170.09	  1219
 3170.19	  1226
 3170.29	  1222
 3170.39	  1224
 3170.49	  1227
 3170.59	  1229
 3170.69	  1229
 3170.79	  1233
 3170.89	  1235
 3170.99	  1237
 3171.09	  1239
 3171.19	  1242
 3171.29	  1243
 3171.39	  1244
 3171.49	  1246
 3171.59	  1253
 3171.69	  1249
 3171.79	  1251
 3171.89	  1252
 3171.99	  1253
 3172.09	  1253
 3172.19	  1257
 3172.29	  1258
 3172.39	  1260
 3172.49	  1261
 3172.59	  1264
 3172.69	  1265
 3172.79	  1267
 3172.89	  1269
 3172.99	  1276
 3173.09	  1272
 3173.19	  1274
 3173.29	  1276
 3173.39	  1278
 3173.49	  1277
 3173.59	  1281
 3173.69	  1282
 3173.79	  1284
 3173.89	  1284
 3173.99	  1288
 3174.09	  1289
 3174.19	  1291
 3174.29	  1292
 3174.39	  1299
 3174.49	  1296
 3174.59	  1297
 3174.69	  1299
 3174.79	  1301
 3174.89	  1301
 3174.99	  1305
  3175.1	  1306
  3175.2	  1307
  3175.3	  1308
  3175.4	  1311
  3175.5	  1311
  3175.6	  1312
  3175.7	  1313
  3175.8	  1319
  3175.9	  1315
  3176.0	  1317
  3176.1	  1318
  3176.2	  1320
  3176.3	  1320
  3176.4	  1324
  3176.5	  1325
  3176.6	  1327
  3176.7	  1327
  3176.8	  1329
  3176.9	  1330
  3177.0	  1332
  3177.1	  1333
  3177.2	  1339
  3177.3	  1336
  3177.4	  1337
  3177.5	  1339
  3177.6	  1339
  3177.7	  1339
  3177.8	  1342
  3177.9	  1342
  3178.0	  1344
  3178.1	  1344
  3178.2	  1348
  3178.3	  1349
  3178.4	  1351
  3178.5	  1351
  3178.6	  1355
  3178.7	  1353
  3178.8	  1355
  3178.9	  1357
  3179.0	  1358
  3179.1	  1359
  3179.2	  1362
  3179.3	  1362
  3179.4	  1364
  3179.5	  1364
  3179.6	  1367
  3179.7	  1367
  3179.8	  1369
  3179.9	  1370
  3180.0	  1374
  3180.1	  1373
  3180.2	  1373
  3180.3	  1374
  3180.4	  1375
  3180.5	  1375
  3180.6	  1377
  3180.7	  1377
  3180.8	  1378
  3180.9	  1378
  3181.0	  1381
  3181.1	  1381
  3181.2	  1383
  3181.3	  1384
  3181.4	  1386
  3181.5	  1387
  3181.6	  1388
  3181.7	  1389
  3181.8	  1389
  3181.9	  1390
  3182.0	  1392
  3182.1	  1392
  3182.2	  1393
  3182.3	  1392
  3182.4	  1395
  3182.5	  1395
  3182.6	  1397
  3182.7	  1398
  3182.8	  1399
  3182.9	  1400
 3183.01	  1400
 3183.11	  1401
 3183.21	  1403
 3183.31	  1405
 3183.41	  1406
 3183.51	  1408
 3183.61	  1409
 3183.71	  1408
 3183.81	  1411
 3183.91	  1412
 3184.01	  1414
 3184.11	  1415
 3184.21	  1415
 3184.31	  1417
 3184.41	  1417
 3184.51	  1418
 3184.61	  1418
 3184.71	  1419
 3184.81	  1420
 3184.91	  1421
 3185.01	  1421
 3185.11	  1420
 3185.21	  1423
 3185.31	  1424
 3185.41	  1425
 3185.51	  1426
 3185.61	  1426
 3185.71	  1429
 3185.81	  1429
 3185.91	  1430
 3186.01	  1431
 3186.11	  1432
 3186.21	  1432
 3186.31	  1432
 3186.41	  1433
 3186.51	  1433
 3186.61	  1435
 3186.71	  1436
 3186.81	  1437
 3186.91	  1439
 3187.01	  1437
 3187.11	  1440
 3187.21	  1440
 3187.31	  1441
 3187.41	  1443
 3187.51	  1445
 3187.61	  1445
 3187.71	  1446
 3187.81	  1446
 3187.91	  1446
 3188.01	  1447
 3188.11	  1448
 3188.21	  1449
 3188.31	  1450
 3188.41	  1448
 3188.51	  1452
 3188.61	  1453
 3188.71	  1454
 3188.81	  1455
 3188.91	  1457
 3189.01	  1457
 3189.11	  1458
 3189.21	  1458
 3189.31	  1459
 3189.41	  1460
 3189.51	  1461
 3189.61	  1462
 3189.71	  1463
 3189.81	  1460
 3189.91	  1464
 3190.01	  1465
 3190.11	  1465
 3190.21	  1466
 3190.31	  1467
 3190.41	  1466
 3190.51	  1468
 3190.61	  1468
 3190.71	  1468
 3190.81	  1469
 3190.91	  1470
 3191.02	  1471
 3191.12	  1471
 3191.22	  1469
 3191.32	  1473
 3191.42	  1473
 3191.52	  1474
 3191.62	  1475
 3191.72	  1479
 3191.82	  1478
 3191.92	  1479
 3192.02	  1480
 3192.12	  1480
 3192.22	  1482
 3192.32	  1483
 3192.42	  1484
 3192.52	  1485
 3192.62	  1481
 3192.72	  1486
 3192.82	  1486
 3192.92	  1487
 3193.02	  1487
 3193.12	  1490
 3193.22	  1489
 3193.32	  1490
 3193.42	  1490
 3193.52	  1491
 3193.62	  1491
 3193.72	  1492
 3193.82	  1493
 3193.92	  1495
 3194.02	  1492
 3194.12	  1496
 3194.22	  1498
 3194.32	  1498
 3194.42	  1499
 3194.52	  1501
 3194.62	  1499
 3194.72	  1500
 3194.82	  1501
 3194.92	  1502
 3195.02	  1502
 3195.12	  1505
 3195.22	  1505
 3195.32	  1506
 3195.42	  1502
 3195.52	  1507
 3195.62	  1509
 3195.72	  1509
 3195.82	  1510
 3195.92	  1513
 3196.02	  1511
 3196.12	  1512
 3196.22	  1512
 3196.32	  1513
 3196.42	  1512
 3196.52	  1514
 3196.62	  1514
 3196.72	  1515
 3196.82	  1511
 3196.92	  1516
 3197.02	  1517
 3197.12	  1518
 3197.22	  1519
 3197.32	  1522
 3197.42	  1521
 3197.52	  1522
 3197.62	  1523
 3197.72	  1524
 3197.82	  1523
 3197.92	  1526
 3198.02	  1526
 3198.12	  1528
 3198.22	  1525
 3198.32	  1529
 3198.42	  1530
 3198.52	  1531
 3198.62	  1532
 3198.72	  1535
 3198.82	  1533
 3198.92	  1535
 3199.03	  1537
 3199.13	  1539
 3199.23	  1537
 3199.33	  1539
 3199.43	  1540
 3199.53	  1540
 3199.63	  1538
 3199.73	  1543
 3199.83	  1543
 3199.93	  1545
 3200.03	  1545
 3200.13	  1547
 3200.23	  1546
 3200.33	  1547
 3200.43	  1548
 3200.53	  1550
 3200.63	  1548
 3200.73	  1551
 3200.83	  1551
 3200.93	  1552
 3201.03	  1549
 3201.13	  1554
 3201.23	  1554
 3201.33	  1556
 3201.43	  1556
 3201.53	  1559
 3201.63	  1558
 3201.73	  1560
 3201.83	  1561
 3201.93	  1565
 3202.03	  1562
 3202.13	  1566
 3202.23	  1566
 3202.33	  1567
 3202.43	  1564
 3202.53	  1569
 3202.63	  1570
 3202.73	  1571
 3202.83	  1571
 3202.93	  1575
 3203.03	  1574
 3203.13	  1575
 3203.23	  1576
 3203.33	  1580
 3203.43	  1579
 3203.53	  1581
 3203.63	  1582
 3203.73	  1583
 3203.83	  1581
 3203.93	  1586
 3204.03	  1587
 3204.13	  1589
 3204.23	  1590
 3204.33	  1594
 3204.43	  1594
 3204.53	  1595
 3204.63	  1596
 3204.73	  1600
 3204.83	  1598
 3204.93	  1601
 3205.03	  1601
 3205.13	  1603
 3205.23	  1601
 3205.33	  1605
 3205.43	  1607
 3205.53	  1609
 3205.63	  1609
 3205.73	  1613
 3205.83	  1612
 3205.93	  1613
 3206.03	  1615
 3206.13	  1619
 3206.23	  1617
 3206.33	  1619
 3206.43	  1621
 3206.53	  1623
 3206.63	  1622
 3206.73	  1627
 3206.83	  1629
 3206.93	  1631
 3207.04	  1633
 3207.14	  1637
 3207.24	  1638
 3207.34	  1640
 3207.44	  1641
 3207.54	  1646
 3207.64	  1644
 3207.74	  1647
 3207.84	  1649
 3207.94	  1651
 3208.04	  1650
 3208.14	  1655
 3208.24	  1658
 3208.34	  1660
 3208.44	  1662
 3208.54	  1666
 3208.64	  1666
 3208.74	  1668
 3208.84	  1670
 3208.94	  1676
 3209.04	  1673
 3209.14	  1676
 3209.24	  1679
 3209.34	  1680
 3209.44	  1680
 3209.54	  1685
 3209.64	  1687
 3209.74	  1689
 3209.84	  1692
 3209.94	  1696
 3210.04	  1698
 3210.14	  1700
 3210.24	  1703
 3210.34	  1709
 3210.44	  1708
 3210.54	  1712
 3210.64	  1715
 3210.74	  1717
 3210.84	  1718
 3210.94	  1723
 3211.04	  1725
 3211.14	  1729
 3211.24	  1732
 3211.34	  1736
 3211.44	  1738
 3211.54	  1741
 3211.64	  1744
 3211.74	  1750
 3211.84	  1750
 3211.94	  1754
 3212.04	  1758
 3212.14	  1761
 3212.24	  1763
 3212.34	  1769
 3212.44	  1771
 3212.54	  1775
 3212.64	  1778
 3212.74	  1783
 3212.84	  1785
 3212.94	  1789
 3213.04	  1794
 3213.14	  1801
 3213.24	  1802
 3213.34	  1807
 3213.44	  1810
 3213.54	  1814
 3213.64	  1817
 3213.74	  1822
 3213.84	  1826
 3213.94	  1829
 3214.04	  1834
 3214.14	  1838
 3214.24	  1842
 3214.34	  1847
 3214.44	  1851
 3214.54	  1857
 3214.64	  1859
 3214.74	  1864
 3214.84	  1868
 3214.94	  1874
 3215.05	  1878
 3215.15	  1884
 3215.25	  1889
 3215.35	  1894
 3215.45	  1900
 3215.55	  1905
 3215.65	  1909
 3215.75	  1914
 3215.85	  1918
 3215.95	  1925
 3216.05	  1929
 3216.15	  1934
 3216.25	  1940
 3216.35	  1945
 3216.45	  1951
 3216.55	  1957
 3216.65	  1963
 3216.75	  1969
 3216.85	  1976
 3216.95	  1982
 3217.05	  1988
 3217.15	  1994
 3217.25	  1999
 3217.35	  2008
 3217.45	  2013
 3217.55	  2019
 3217.65	  2026
 3217.75	  2033
 3217.85	  2041
 3217.95	  2047
 3218.05	  2054
 3218.15	  2062
 3218.25	  2069
 3218.35	  2077
 3218.45	  2084
 3218.55	  2092
 3218.65	  2099
 3218.75	  2107
 3218.85	  2115
 3218.95	  2122
 3219.05	  2129
 3219.15	  2137
 3219.25	  2145
 3219.35	  2152
 3219.45	  2160
 3219.55	  2169
 3219.65	  2177
 3219.75	  2185
 3219.85	  2194
 3219.95	  2202
 3220.05	  2211
 3220.15	  2221
 3220.25	  2229
 3220.35	  2238
 3220.45	  2248
 3220.55	  2258
 3220.65	  2267
 3220.75	  2276
 3220.85	  2287
 3220.95	  2297
 3221.05	  2307
 3221.15	  2318
 3221.25	  2328
 3221.35	  2339
 3221.45	  2350
 3221.55	  2360
 3221.65	  2369
 3221.75	  2380
 3221.85	  2391
 3221.95	  2400
 3222.05	  2412
 3222.15	  2423
 3222.25	  2434
 3222.35	  2444
 3222.45	  2456
 3222.55	  2467
 3222.65	  2479
 3222.75	  2490
 3222.85	  2502
 3222.95	  2513
 3223.06	  2525
 3223.16	  2537
 3223.26	  2548
 3223.36	  2560
 3223.46	  2573
 3223.56	  2583
 3223.66	  2594
 3223.76	  2606
 3223.86	  2618
 3223.96	  2630
 3224.06	  2642
 3224.16	  2655
 3224.26	  2669
 3224.36	  2682
 3224.46	  2696
 3224.56	  2709
 3224.66	  2722
 3224.76	  2736
 3224.86	  2752
 3224.96	  2764
 3225.06	  2776
 3225.16	  2790
 3225.26	  2803
 3225.36	  2817
 3225.46	  2832
 3225.56	  2846
 3225.66	  2862
 3225.76	  2876
 3225.86	  2892
 3225.96	  2907
 3226.06	  2920
 3226.16	  2935
 3226.26	  2951
 3226.36	  2962
 3226.46	  2976
 3226.56	  2991
 3226.66	  3006
 3226.76	  3018
 3226.86	  3034
 3226.96	  3047
 3227.06	  3061
 3227.16	  3074
 3227.26	  3090
 3227.36	  3104
 3227.46	  3115
 3227.56	  3128
 3227.66	  3143
 3227.76	  3154
 3227.86	  3167
 3227.96	  3180
 3228.06	  3192
 3228.16	  3204
 3228.26	  3219
 3228.36	  3232
 3228.46	  3243
 3228.56	  3255
 3228.66	  3269
 3228.76	  3281
 3228.86	  3290
 3228.96	  3301
 3229.06	  3315
 3229.16	  3323
 3229.26	  3333
 3229.36	  3344
 3229.46	  3354
 3229.56	  3364
 3229.66	  3375
 3229.76	  3384
 3229.86	  3393
 3229.96	  3401
 3230.06	  3414
 3230.16	  3424
 3230.26	  3434
 3230.36	  3444
 3230.46	  3456
 3230.56	  3462
 3230.66	  3469
 3230.76	  3477
 3230.86	  3483
 3230.96	  3490
 3231.07	  3498
 3231.17	  3504
 3231.27	  3511
 3231.37	  3516
 3231.47	  3525
 3231.57	  3529
 3231.67	  3535
 3231.77	  3539
 3231.87	  3547
 3231.97	  3549
 3232.07	  3553
 3232.17	  3557
 3232.27	  3559
 3232.37	  3562
 3232.47	  3567
 3232.57	  3568
 3232.67	  3569
 3232.77	  3568
 3232.87	  3571
 3232.97	  3570
 3233.07	  3570
 3233.17	  3568
 3233.27	  3569
 3233.37	  3565
 3233.47	  3563
 3233.57	  3561
 3233.67	  3558
 3233.77	  3553
 3233.87	  3551
 3233.97	  3545
 3234.07	  3541
 3234.17	  3534
 3234.27	  3531
 3234.37	  3525
 3234.47	  3519
 3234.57	  3511
 3234.67	  3505
 3234.77	  3494
 3234.87	  3485
 3234.97	  3476
 3235.07	  3465
 3235.17	  3454
 3235.27	  3445
 3235.37	  3433
 3235.47	  3421
 3235.57	  3408
 3235.67	  3397
 3235.77	  3384
 3235.87	  3370
 3235.97	  3356
 3236.07	  3344
 3236.17	  3327
 3236.27	  3312
 3236.37	  3298
 3236.47	  3281
 3236.57	  3263
 3236.67	  3247
 3236.77	  3229
 3236.87	  3213
 3236.97	  3194
 3237.07	  3180
 3237.17	  3161
 3237.27	  3144
 3237.37	  3124
 3237.47	  3107
 3237.57	  3086
 3237.67	  3065
 3237.77	  3045
 3237.87	  3025
 3237.97	  3002
 3238.07	  2983
 3238.17	  2961
 3238.27	  2940
 3238.37	  2915
 3238.47	  2896
 3238.57	  2873
 3238.67	  2850
 3238.77	  2827
 3238.87	  2806
 3238.97	  2780
 3239.08	  2757
 3239.18	  2734
 3239.28	  2710
 3239.38	  2683
 3239.48	  2661
 3239.58	  2636
 3239.68	  2611
 3239.78	  2583
 3239.88	  2562
 3239.98	  2536
 3240.08	  2510
 3240.18	  2484
 3240.28	  2461
 3240.38	  2434
 3240.48	  2408
 3240.58	  2384
 3240.68	  2361
 3240.78	  2334
 3240.88	  2311
 3240.98	  2286
 3241.08	  2261
 3241.18	  2233
 3241.28	  2213
 3241.38	  2188
 3241.48	  2164
 3241.58	  2140
 3241.68	  2119
 3241.78	  2094
 3241.88	  2072
 3241.98	  2050
 3242.08	  2028
 3242.18	  2003
 3242.28	  1983
 3242.38	  1962
 3242.48	  1940
 3242.58	  1915
 3242.68	  1898
 3242.78	  1876
 3242.88	  1855
 3242.98	  1834
 3243.08	  1815
 3243.18	  1792
 3243.28	  1771
 3243.38	  1751
 3243.48	  1730
 3243.58	  1708
 3243.68	  1690
 3243.78	  1671
 3243.88	  1651
 3243.98	  1628
 3244.08	  1613
 3244.18	  1593
 3244.28	  1574
 3244.38	  1556
 3244.48	  1539
 3244.58	  1519
 3244.68	  1502
 3244.78	  1485
 3244.88	  1467
 3244.98	  1449
 3245.08	  1434
 3245.18	  1418
 3245.28	  1402
 3245.38	  1383
 3245.48	  1373
 3245.58	  1357
 3245.68	  1343
 3245.78	  1329
 3245.88	  1317
 3245.98	  1302
 3246.08	  1290
 3246.18	  1277
 3246.28	  1265
 3246.38	  1251
 3246.48	  1241
 3246.58	  1229
 3246.68	  1217
 3246.78	  1203
 3246.88	  1197
 3246.98	  1185
 3247.09	  1175
 3247.19	  1165
 3247.29	  1157
 3247.39	  1144
 3247.49	  1135
 3247.59	  1125
 3247.69	  1116
 3247.79	  1107
 3247.89	  1100
 3247.99	  1092
 3248.09	  1084
 3248.19	  1072
 3248.29	  1069
 3248.39	  1060
 3248.49	  1053
 3248.59	  1046
 3248.69	  1041
 3248.79	  1031
 3248.89	  1026
 3248.99	  1018
 3249.09	  1013
 3249.19	  1006
 3249.29	  1001
 3249.39	   996
 3249.49	   991
 3249.59	   982
 3249.69	   982
 3249.79	   976
 3249.89	   972
 3249.99	   968
 3250.09	   965
 3250.19	   960
 3250.29	   957
 3250.39	   954
 3250.49	   951
 3250.59	   947
 3250.69	   945
 3250.79	   942
 3250.89	   940
 3250.99	   935
 3251.09	   937
 3251.19	   934
 3251.29	   932
 3251.39	   931
 3251.49	   932
 3251.59	   929
 3251.69	   928
 3251.79	   927
 3251.89	   926
 3251.99	   923
 3252.09	   924
 3252.19	   922
 3252.29	   921
 3252.39	   916
 3252.49	   920
 3252.59	   919
 3252.69	   918
 3252.79	   918
 3252.89	   920
 3252.99	   916
 3253.09	   916
 3253.19	   917
 3253.29	   919
 3253.39	   918
 3253.49	   920
 3253.59	   920
 3253.69	   921
 3253.79	   917
 3253.89	   922
 3253.99	   921
 3254.09	   921
 3254.19	   923
 3254.29	   925
 3254.39	   924
 3254.49	   925
 3254.59	   925
 3254.69	   926
 3254.79	   926
 3254.89	   929
 3254.99	   930
  3255.1	   931
  3255.2	   929
  3255.3	   934
  3255.4	   935
  3255.5	   936
  3255.6	   938
  3255.7	   942
  3255.8	   941
  3255.9	   943
  3256.0	   945
  3256.1	   947
  3256.2	   948
  3256.3	   952
  3256.4	   954
  3256.5	   956
  3256.6	   955
  3256.7	   962
  3256.8	   964
  3256.9	   966
  3257.0	   969
  3257.1	   972
  3257.2	   972
  3257.3	   975
  3257.4	   978
  3257.5	   980
  3257.6	   980
  3257.7	   984
  3257.8	   986
  3257.9	   989
  3258.0	   988
  3258.1	   994
  3258.2	   995
  3258.3	   998
  3258.4	  1000
  3258.5	  1005
  3258.6	  1005
  3258.7	  1008
  3258.8	  1012
  3258.9	  1014
  3259.0	  1015
  3259.1	  1019
  3259.2	  1021
  3259.3	  1024
  3259.4	  1024
  3259.5	  1030
  3259.6	  1033
  3259.7	  1036
  3259.8	  1038
  3259.9	  1042
  3260.0	  1042
  3260.1	  1045
  3260.2	  1047
  3260.3	  1049
  3260.4	  1050
  3260.5	  1054
  3260.6	  1055
  3260.7	  1058
  3260.8	  1057
  3260.9	  1063
  3261.0	  1065
  3261.1	  1068
  3261.2	  1071
  3261.3	  1075
  3261.4	  1075
  3261.5	  1078
  3261.6	  1080
  3261.7	  1083
  3261.8	  1085
  3261.9	  1089
  3262.0	  1091
  3262.1	  1094
  3262.2	  1094
  3262.3	  1100
  3262.4	  1102
  3262.5	  1104
  3262.6	  1105
  3262.7	  1108
  3262.8	  1109
  3262.9	  1111
 3263.01	  1113
 3263.11	  1115
 3263.21	  1115
 3263.31	  1120
 3263.41	  1123
 3263.51	  1126
 3263.61	  1126
 3263.71	  1132
 3263.81	  1134
 3263.91	  1137
 3264.01	  1139
 3264.11	  1144
 3264.21	  1144
 3264.31	  1147
 3264.41	  1149
 3264.51	  1153
 3264.61	  1153
 3264.71	  1157
 3264.81	  1159
 3264.91	  1161
 3265.01	  1159
 3265.11	  1165
 3265.21	  1167
 3265.31	  1169
 3265.41	  1172
 3265.51	  1175
 3265.61	  1176
 3265.71	  1179
 3265.81	  1180
 3265.91	  1182
 3266.01	  1183
 3266.11	  1186
 3266.21	  1188
 3266.31	  1190
 3266.41	  1189
 3266.51	  1196
 3266.61	  1197
 3266.71	  1200
 3266.81	  1202
 3266.91	  1205
 3267.01	  1205
 3267.11	  1207
 3267.21	  1209
 3267.31	  1212
 3267.41	  1212
 3267.51	  1216
 3267.61	  1218
 3267.71	  1220
 3267.81	  1220
 3267.91	  1227
 3268.01	  1228
 3268.11	  1230
 3268.21	  1233
 3268.31	  1235
 3268.41	  1235
 3268.51	  1237
 3268.61	  1238
 3268.71	  1240
 3268.81	  1240
 3268.91	  1243
 3269.01	  1245
 3269.11	  1247
 3269.21	  1246
 3269.31	  1252
 3269.41	  1253
 3269.51	  1254
 3269.61	  1257
 3269.71	  1260
 3269.81	  1260
 3269.91	  1263
 3270.01	  1264
 3270.11	  1267
 3270.21	  1266
 3270.31	  1268
 3270.41	  1270
 3270.51	  1271
 3270.61	  1269
 3270.71	  1275
 3270.81	  1276
 3270.91	  1278
 3271.02	  1280
 3271.12	  1282
 3271.22	  1282
 3271.32	  1283
 3271.42	  1284
 3271.52	  1285
 3271.62	  1286
 3271.72	  1290
 3271.82	  1292
 3271.92	  1294
 3272.02	  1293
 3272.12	  1299
 3272.22	  1299
 3272.32	  1301
 3272.42	  1302
 3272.52	  1305
 3272.62	  1304
 3272.72	  1306
 3272.82	  1307
 3272.92	  1309
 3273.02	  1309
 3273.12	  1312
 3273.22	  1314
 3273.32	  1315
 3273.42	  1314
 3273.52	  1319
 3273.62	  1320
 3273.72	  1321
 3273.82	  1323
 3273.92	  1326
 3274.02	  1325
 3274.12	  1328
 3274.22	  1329
 3274.32	  1330
 3274.42	  1330
 3274.52	  1333
 3274.62	  1335
 3274.72	  1336
 3274.82	  1334
 3274.92	  1340
 3275.02	  1340
 3275.12	  1341
 3275.22	  1342
 3275.32	  1345
 3275.42	  1344
 3275.52	  1346
 3275.62	  1347
 3275.72	  1348
 3275.82	  1348
 3275.92	  1351
 3276.02	  1352
 3276.12	  1354
 3276.22	  1352
 3276.32	  1358
 3276.42	  1359
 3276.52	  1361
 3276.62	  1362
 3276.72	  1364
 3276.82	  1363
 3276.92	  1365
 3277.02	  1366
 3277.12	  1367
 3277.22	  1367
 3277.32	  1369
 3277.42	  1370
 3277.52	  1371
 3277.62	  1369
 3277.72	  1375
 3277.82	  1375
 3277.92	  1376
 3278.02	  1377
 3278.12	  1380
 3278.22	  1380
 3278.32	  1382
 3278.42	  1383
 3278.52	  1384
 3278.62	  1383
 3278.72	  1386
 3278.82	  1387
 3278.92	  1389
 3279.03	  1386
 3279.13	  1391
 3279.23	  1391
 3279.33	  1391
 3279.43	  1393
 3279.53	  1395
 3279.63	  1394
 3279.73	  1396
 3279.83	  1397
 3279.93	  1398
 3280.03	  1398
 3280.13	  1401
 3280.23	  1401
 3280.33	  1402
 3280.43	  1400
 3280.53	  1405
 3280.63	  1406
 3280.73	  1406
 3280.83	  1406
 3280.93	  1408
 3281.03	  1406
 3281.13	  1408
 3281.23	  1409
 3281.33	  1409
 3281.43	  1409
 3281.53	  1412
 3281.63	  1413
 3281.73	  1415
 3281.83	  1412
 3281.93	  1417
 3282.03	  1417
 3282.13	  1418
 3282.23	  1419
 3282.33	  1422
 3282.43	  1420
 3282.53	  1422
 3282.63	  1422
 3282.73	  1423
 3282.83	  1422
 3282.93	  1424
 3283.03	  1425
 3283.13	  1425
 3283.23	  1423
 3283.33	  1428
 3283.43	  1428
 3283.53	  1429
 3283.63	  1430
 3283.73	  1433
 3283.83	  1431
 3283.93	  1433
 3284.03	  1434
 3284.13	  1435
 3284.23	  1434
 3284.33	  1437
 3284.43	  1437
 3284.53	  1438
 3284.63	  1435
 3284.73	  1440
 3284.83	  1439
 3284.93	  1439
 3285.03	  1440
 3285.13	  1443
 3285.23	  1441
 3285.33	  1442
 3285.43	  1444
 3285.53	  1444
 3285.63	  1442
 3285.73	  1446
 3285.83	  1446
 3285.93	  1447
 3286.03	  1445
 3286.13	  1449
 3286.23	  1449
 3286.33	  1450
 3286.43	  1450
 3286.53	  1453
 3286.63	  1452
 3286.73	  1453
 3286.83	  1454
 3286.93	  1455
 3287.04	  1454
 3287.14	  1458
 3287.24	  1458
 3287.34	  1458
 3287.44	  1456
 3287.54	  1461
 3287.64	  1461
 3287.74	  1462
 3287.84	  1462
 3287.94	  1465
 3288.04	  1464
 3288.14	  1465
 3288.24	  1466
 3288.34	  1468
 3288.44	  1467
 3288.54	  1469
 3288.64	  1469
 3288.74	  1470
 3288.84	  1467
 3288.94	  1471
 3289.04	  1470
 3289.14	  1471
 3289.24	  1471
 3289.34	  1474
 3289.44	  1473
 3289.54	  1474
 3289.64	  1475
 3289.74	  1475
 3289.84	  1474
 3289.94	  1477
 3290.04	  1477
 3290.14	  1478
 3290.24	  1475
 3290.34	  1480
 3290.44	  1480
 3290.54	  1481
 3290.64	  1481
 3290.74	  1484
 3290.84	  1483
 3290.94	  1484
 3291.04	  1485
 3291.14	  1486
 3291.24	  1485
 3291.34	  1487
 3291.44	  1487
 3291.54	  1487
 3291.64	  1483
 3291.74	  1488
 3291.84	  1488
 3291.94	  1488
 3292.04	  1489
 3292.14	  1492
 3292.24	  1491
 3292.34	  1491
 3292.44	  1492
 3292.54	  1493
 3292.64	  1492
 3292.74	  1494
 3292.84	  1495
 3292.94	  1495
 3293.04	  1492
 3293.14	  1496
 3293.24	  1496
 3293.34	  1496
 3293.44	  1496
 3293.54	  1499
 3293.64	  1498
 3293.74	  1498
 3293.84	  1499
 3293.94	  1500
 3294.04	  1498
 3294.14	  1501
 3294.24	  1501
 3294.34	  1501
 3294.44	  1498
 3294.54	  1503
 3294.64	  1503
 3294.74	  1504
 3294.84	  1504
 3294.94	  1506
 3295.05	  1504
 3295.15	  1505
 3295.25	  1507
 3295.35	  1509
 3295.45	  1507
 3295.55	  1510
 3295.65	  1511
 3295.75	  1511
 3295.85	  1508
 3295.95	  1513
 3296.05	  1512
 3296.15	  1513
 3296.25	  1514
 3296.35	  1517
 3296.45	  1516
 3296.55	  1517
 3296.65	  1518
 3296.75	  1519
 3296.85	  1518
 3296.95	  1521
 3297.05	  1523
 3297.15	  1523
 3297.25	  1520
 3297.35	  1526
 3297.45	  1526
 3297.55	  1527
 3297.65	  1528
 3297.75	  1531
 3297.85	  1529
 3297.95	  1530
 3298.05	  1531
 3298.15	  1531
 3298.25	  1529
 3298.35	  1532
 3298.45	  1532
 3298.55	  1532
 3298.65	  1530
 3298.75	  1534
 3298.85	  1534
 3298.95	  1534
 3299.05	  1535
 3299.15	  1538
 3299.25	  1535
 3299.35	  1537
 3299.45	  1538
 3299.55	  1539
 3299.65	  1538
 3299.75	  1541
 3299.85	  1541
 3299.95	  1543
 3300.05	  1540
 3300.15	  1545
 3300.25	  1546
 3300.35	  1546
 3300.45	  1548
 3300.55	  1550
 3300.65	  1549
 3300.75	  1550
 3300.85	  1551
 3300.95	  1552
 3301.05	  1552
 3301.15	  1554
 3301.25	  1554
 3301.35	  1555
 3301.45	  1553
 3301.55	  1557
 3301.65	  1556
 3301.75	  1558
 3301.85	  1559
 3301.95	  1561
 3302.05	  1560
 3302.15	  1562
 3302.25	  1563
 3302.35	  1564
 3302.45	  1563
 3302.55	  1566
 3302.65	  1566
 3302.75	  1568
 3302.85	  1565
 3302.95	  1570
 3303.06	  1571
 3303.16	  1571
 3303.26	  1572
 3303.36	  1576
 3303.46	  1575
 3303.56	  1577
 3303.66	  1579
 3303.76	  1580
 3303.86	  1580
 3303.96	  1583
 3304.06	  1584
 3304.16	  1585
 3304.26	  1583
 3304.36	  1588
 3304.46	  1588
 3304.56	  1588
 3304.66	  1590
 3304.76	  1594
 3304.86	  1593
 3304.96	  1594
 3305.06	  1595
 3305.16	  1595
 3305.26	  1595
 3305.36	  1598
 3305.46	  1599
 3305.56	  1601
 3305.66	  1599
 3305.76	  1604
 3305.86	  1605
 3305.96	  1607
 3306.06	  1609
 3306.16	  1613
 3306.26	  1612
 3306.36	  1613
 3306.46	  1615
 3306.56	  1617
 3306.66	  1618
 3306.76	  1621
 3306.86	  1622
 3306.96	  1624
 3307.06	  1623
 3307.16	  1628
 3307.26	  1629
 3307.36	  1629
 3307.46	  1631
 3307.56	  1635
 3307.66	  1634
 3307.76	  1636
 3307.86	  1638
 3307.96	  1640
 3308.06	  1641
 3308.16	  1644
 3308.26	  1646
 3308.36	  1648
 3308.46	  1648
 3308.56	  1653
 3308.66	  1655
 3308.76	  1656
 3308.86	  1657
 3308.96	  1662
 3309.06	  1662
 3309.16	  1664
 3309.26	  1667
 3309.36	  1668
 3309.46	  1669
 3309.56	  1673
 3309.66	  1675
 3309.76	  1677
 3309.86	  1678
 3309.96	  1682
 3310.06	  1684
 3310.16	  1687
 3310.26	  1689
 3310.36	  1695
 3310.46	  1695
 3310.56	  1698
 3310.66	  1701
 3310.76	  1703
 3310.86	  1705
 3310.96	  1709
 3311.07	  1711
 3311.17	  1714
 3311.27	  1715
 3311.37	  1720
 3311.47	  1722
 3311.57	  1724
 3311.67	  1727
 3311.77	  1732
 3311.87	  1733
 3311.97	  1736
 3312.07	  1740
 3312.17	  1743
 3312.27	  1744
 3312.37	  1749
 3312.47	  1751
 3312.57	  1756
 3312.67	  1758
 3312.77	  1763
 3312.87	  1766
 3312.97	  1769
 3313.07	  1772
 3313.17	  1778
 3313.27	  1780
 3313.37	  1784
 3313.47	  1788
 3313.57	  1792
 3313.67	  1795
 3313.77	  1801
 3313.87	  1804
 3313.97	  1809
 3314.07	  1812
 3314.17	  1817
 3314.27	  1821
 3314.37	  1825
 3314.47	  1830
 3314.57	  1836
 3314.67	  1838
 3314.77	  1842
 3314.87	  1847
 3314.97	  1852
 3315.07	  1855
 3315.17	  1861
 3315.27	  1867
 3315.37	  1872
 3315.47	  1877
 3315.57	  1882
 3315.67	  1886
 3315.77	  1892
 3315.87	  1896
 3315.97	  1903
 3316.07	  1907
 3316.17	  1911
 3316.27	  1917
 3316.37	  1923
 3316.47	  1929
 3316.57	  1935
 3316.67	  1940
 3316.77	  1946
 3316.87	  1952
 3316.97	  1958
 3317.07	  1964
 3317.17	  1970
 3317.27	  1975
 3317.37	  1982
 3317.47	  1988
 3317.57	  1993
 3317.67	  2000
 3317.77	  2006
 3317.87	  2012
 3317.97	  2019
 3318.07	  2026
 3318.17	  2033
 3318.27	  2041
 3318.37	  2048
 3318.47	  2056
 3318.57	  2063
 3318.67	  2072
 3318.77	  2081
 3318.87	  2089
 3318.97	  2096
 3319.08	  2105
 3319.18	  2113
 3319.28	  2121
 3319.38	  2129
 3319.48	  2138
 3319.58	  2147
 3319.68	  2157
 3319.78	  2166
 3319.88	  2174
 3319.98	  2183
 3320.08	  2192
 3320.18	  2201
 3320.28	  2209
 3320.38	  2217
 3320.48	  2227
 3320.58	  2237
 3320.68	  2245
 3320.78	  2255
 3320.88	  2265
 3320.98	  2274
 3321.08	  2285
 3321.18	  2294
 3321.28	  2304
 3321.38	  2314
 3321.48	  2325
 3321.58	  2336
 3321.68	  2347
 3321.78	  2358
 3321.88	  2369
 3321.98	  2381
 3322.08	  2392
 3322.18	  2403
 3322.28	  2416
 3322.38	  2427
 3322.48	  2441
 3322.58	  2451
 3322.68	  2463
 3322.78	  2475
 3322.88	  2488
 3322.98	  2501
 3323.08	  2515
 3323.18	  2528
 3323.28	  2541
 3323.38	  2554
 3323.48	  2567
 3323.58	  2580
 3323.68	  2594
 3323.78	  2607
 3323.88	  2622
 3323.98	  2634
 3324.08	  2648
 3324.18	  2661
 3324.28	  2675
 3324.38	  2689
 3324.48	  2703
 3324.58	  2717
 3324.68	  2732
 3324.78	  2746
 3324.88	  2762
 3324.98	  2776
 3325.08	  2791
 3325.18	  2805
 3325.28	  2821
 3325.38	  2833
 3325.48	  2847
 3325.58	  2861
 3325.68	  2877
 3325.78	  2891
 3325.88	  2907
 3325.98	  2922
 3326.08	  2938
 3326.18	  2953
 3326.28	  2968
 3326.38	  2983
 3326.48	  2998
 3326.58	  3013
 3326.68	  3031
 3326.78	  3044
 3326.88	  3060
 3326.98	  3076
 3327.09	  3093
 3327.19	  3106
 3327.29	  3122
 3327.39	  3137
 3327.49	  3152
 3327.59	  3166
 3327.69	  3183
 3327.79	  3198
 3327.89	  3216
 3327.99	  3232
 3328.09	  3250
 3328.19	  3263
 3328.29	  3279
 3328.39	  3294
 3328.49	  3310
 3328.59	  3324
 3328.69	  3341
 3328.79	  3356
 3328.89	  3369
 3328.99	  3383
 3329.09	  3398
 3329.19	  3410
 3329.29	  3424
 3329.39	  3438
 3329.49	  3455
 3329.59	  3464
 3329.69	  3478
 3329.79	  3490
 3329.89	  3502
 3329.99	  3512
 3330.09	  3526
 3330.19	  3538
 3330.29	  3549
 3330.39	  3559
 3330.49	  3570
 3330.59	  3577
 3330.69	  3588
 3330.79	  3598
 3330.89	  3610
 3330.99	  3616
 3331.09	  3625
 3331.19	  3633
 3331.29	  3640
 3331.39	  3644
 3331.49	  3653
 3331.59	  3660
 3331.69	  3665
 3331.79	  3670
 3331.89	  3676
 3331.99	  3680
 3332.09	  3684
 3332.19	  3690
 3332.29	  3695
 3332.39	  3694
 3332.49	  3697
 3332.59	  3698
 3332.69	  3699
 3332.79	  3697
 3332.89	  3699
 3332.99	  3699
 3333.09	  3698
 3333.19	  3697
 3333.29	  3696
 3333.39	  3691
 3333.49	  3688
 3333.59	  3684
 3333.69	  3683
 3333.79	  3675
 3333.89	  3673
 3333.99	  3665
 3334.09	  3658
 3334.19	  3650
 3334.29	  3645
 3334.39	  3637
 3334.49	  3629
 3334.59	  3619
 3334.69	  3613
 3334.79	  3603
 3334.89	  3592
 3334.99	  3580
  3335.1	  3572
  3335.2	  3557
  3335.3	  3548
  3335.4	  3534
  3335.5	  3522
  3335.6	  3507
  3335.7	  3495
  3335.8	  3481
  3335.9	  3466
  3336.0	  3449
  3336.1	  3434
  3336.2	  3414
  3336.3	  3396
  3336.4	  3377
  3336.5	  3360
  3336.6	  3338
  3336.7	  3319
  3336.8	  3299
  3336.9	  3278
  3337.0	  3254
  3337.1	  3235
  3337.2	  3213
  3337.3	  3191
  3337.4	  3166
  3337.5	  3145
  3337.6	  3120
  3337.7	  3096
  3337.8	  3070
  3337.9	  3048
  3338.0	  3021
  3338.1	  2997
  3338.2	  2971
  3338.3	  2946
  3338.4	  2916
  3338.5	  2894
  3338.6	  2868
  3338.7	  2842
  3338.8	  2814
  3338.9	  2790
  3339.0	  2762
  3339.1	  2735
  3339.2	  2709
  3339.3	  2686
  3339.4	  2656
  3339.5	  2632
  3339.6	  2604
  3339.7	  2578
  3339.8	  2547
  3339.9	  2525
  3340.0	  2499
  3340.1	  2472
  3340.2	  2444
  3340.3	  2419
  3340.4	  2391
  3340.5	  2363
  3340.6	  2337
  3340.7	  2312
  3340.8	  2282
  3340.9	  2257
  3341.0	  2231
  3341.1	  2205
  3341.2	  2174
  3341.3	  2152
  3341.4	  2125
  3341.5	  2098
  3341.6	  2071
  3341.7	  2047
  3341.8	  2019
  3341.9	  1993
  3342.0	  1967
  3342.1	  1944
  3342.2	  1914
  3342.3	  1890
  3342.4	  1866
  3342.5	  1841
  3342.6	  1813
  3342.7	  1794
  3342.8	  1769
  3342.9	  1746
 3343.01	  1723
 3343.11	  1703
 3343.21	  1678
 3343.31	  1656
 3343.41	  1634
 3343.51	  1614
 3343.61	  1591
 3343.71	  1572
 3343.81	  1553
 3343.91	  1532
 3344.01	  1509
 3344.11	  1495
 3344.21	  1477
 3344.31	  1459
 3344.41	  1441
 3344.51	  1425
 3344.61	  1405
 3344.71	  1388
 3344.81	  1371
 3344.91	  1355
 3345.01	  1336
 3345.11	  1321
 3345.21	  1305
 3345.31	  1289
 3345.41	  1270
 3345.51	  1260
 3345.61	  1245
 3345.71	  1231
 3345.81	  1217
 3345.91	  1206
 3346.01	  1192
 3346.11	  1179
 3346.21	  1166
 3346.31	  1154
 3346.41	  1140
 3346.51	  1129
 3346.61	  1117
 3346.71	  1106
 3346.81	  1090
 3346.91	  1084
 3347.01	  1073
 3347.11	  1063
 3347.21	  1054
 3347.31	  1046
 3347.41	  1035
 3347.51	  1027
 3347.61	  1017
 3347.71	  1009
 3347.81	  1000
 3347.91	   993
 3348.01	   986
 3348.11	   979
 3348.21	   969
 3348.31	   966
 3348.41	   960
 3348.51	   954
 3348.61	   949
 3348.71	   945
 3348.81	   937
 3348.91	   933
 3349.01	   928
 3349.11	   922
 3349.21	   918
 3349.31	   913
 3349.41	   908
 3349.51	   904
 3349.61	   896
 3349.71	   896
 3349.81	   893
 3349.91	   890
 3350.01	   888
 3350.11	   887
 3350.21	   883
 3350.31	   881
 3350.41	   878
 3350.51	   875
 3350.61	   873
 3350.71	   872
 3350.81	   869
 3350.91	   868
 3351.02	   864
 3351.12	   866
 3351.22	   866
 3351.32	   866
 3351.42	   866
 3351.52	   867
 3351.62	   865
 3351.72	   864
 3351.82	   865
 3351.92	   863
 3352.02	   863
 3352.12	   863
 3352.22	   863
 3352.32	   864
 3352.42	   862
 3352.52	   866
 3352.62	   867
 3352.72	   867
 3352.82	   868
 3352.92	   870
 3353.02	   869
 3353.12	   870
 3353.22	   871
 3353.32	   871
 3353.42	   874
 3353.52	   875
 3353.62	   876
 3353.72	   878
 3353.82	   877
 3353.92	   880
 3354.02	   882
 3354.12	   883
 3354.22	   883
 3354.32	   886
 3354.42	   886
 3354.52	   888
 3354.62	   891
 3354.72	   891
 3354.82	   895
 3354.92	   897
 3355.02	   900
 3355.12	   902
 3355.22	   903
 3355.32	   906
 3355.42	   908
 3355.52	   910
 3355.62	   913
 3355.72	   917
 3355.82	   920
 3355.92	   922
 3356.02	   925
 3356.12	   925
 3356.22	   930
 3356.32	   932
 3356.42	   935
 3356.52	   937
 3356.62	   940
 3356.72	   942
 3356.82	   945
 3356.92	   947
 3357.02	   950
 3357.12	   954
 3357.22	   956
 3357.32	   958
 3357.42	   962
 3357.52	   962
 3357.62	   967
 3357.72	   970
 3357.82	   973
 3357.92	   975
 3358.02	   979
 3358.12	   980
 3358.22	   983
 3358.32	   986
 3358.42	   989
 3358.52	   992
 3358.62	   995
 3358.72	   997
 3358.82	  1000
 3358.92	  1001
 3359.03	  1006
 3359.13	  1008
 3359.23	  1011
 3359.33	  1014
 3359.43	  1018
 3359.53	  1019
 3359.63	  1021
 3359.73	  1025
 3359.83	  1028
 3359.93	  1031
 3360.03	  1035
 3360.13	  1038
 3360.23	  1041
 3360.33	  1042
 3360.43	  1047
 3360.53	  1050
 3360.63	  1053
 3360.73	  1055
 3360.83	  1060
 3360.93	  1061
 3361.03	  1064
 3361.13	  1067
 3361.23	  1070
 3361.33	  1071
 3361.43	  1075
 3361.53	  1077
 3361.63	  1080
 3361.73	  1081
 3361.83	  1085
 3361.93	  1087
 3362.03	  1090
 3362.13	  1092
 3362.23	  1098
 3362.33	  1097
 3362.43	  1100
 3362.53	  1103
 3362.63	  1105
 3362.73	  1106
 3362.83	  1110
 3362.93	  1112
 3363.03	  1114
 3363.13	  1116
 3363.23	  1121
 3363.33	  1123
 3363.43	  1126
 3363.53	  1128
 3363.63	  1135
 3363.73	  1133
 3363.83	  1135
 3363.93	  1138
 3364.03	  1141
 3364.13	  1143
 3364.23	  1148
 3364.33	  1150
 3364.43	  1153
 3364.53	  1155
 3364.63	  1159
 3364.73	  1160
 3364.83	  1163
 3364.93	  1165
 3365.03	  1171
 3365.13	  1169
 3365.23	  1171
 3365.33	  1173
 3365.43	  1175
 3365.53	  1175
 3365.63	  1179
 3365.73	  1180
 3365.83	  1182
 3365.93	  1183
 3366.03	  1187
 3366.13	  1188
 3366.23	  1191
 3366.33	  1193
 3366.43	  1201
 3366.53	  1199
 3366.63	  1202
 3366.73	  1205
 3366.83	  1207
 3366.93	  1207
 3367.04	  1212
 3367.14	  1213
 3367.24	  1216
 3367.34	  1218
 3367.44	  1222
 3367.54	  1223
 3367.64	  1225
 3367.74	  1227
 3367.84	  1234
 3367.94	  1230
 3368.04	  1231
 3368.14	  1233
 3368.24	  1234
 3368.34	  1234
 3368.44	  1238
 3368.54	  1239
 3368.64	  1241
 3368.74	  1243
 3368.84	  1245
 3368.94	  1246
 3369.04	  1248
 3369.14	  1249
 3369.24	  1255
 3369.34	  1252
 3369.44	  1253
 3369.54	  1256
 3369.64	  1257
 3369.74	  1257
 3369.84	  1261
 3369.94	  1263
 3370.04	  1265
 3370.14	  1267
 3370.24	  1270
 3370.34	  1271
 3370.44	  1274
 3370.54	  1275
 3370.64	  1282
 3370.74	  1279
 3370.84	  1281
 3370.94	  1283
 3371.04	  1284
 3371.14	  1284
 3371.24	  1288
 3371.34	  1289
 3371.44	  1290
 3371.54	  1293
 3371.64	  1294
 3371.74	  1294
 3371.84	  1296
 3371.94	  1297
 3372.04	  1304
 3372.14	  1301
 3372.24	  1302
 3372.34	  1304
 3372.44	  1306
 3372.54	  1306
 3372.64	  1310
 3372.74	  1312
 3372.84	  1313
 3372.94	  1315
 3373.04	  1317
 3373.14	  1318
 3373.24	  1321
 3373.34	  1323
 3373.44	  1328
 3373.54	  1326
 3373.64	  1327
 3373.74	  1329
 3373.84	  1331
 3373.94	  1330
 3374.04	  1333
 3374.14	  1334
 3374.24	  1334
 3374.34	  1335
 3374.44	  1336
 3374.54	  1337
 3374.64	  1338
 3374.74	  1339
 3374.84	  1344
 3374.94	  1342
 3375.05	  1343
 3375.15	  1344
 3375.25	  1346
 3375.35	  1345
 3375.45	  1348
 3375.55	  1351
 3375.65	  1351
 3375.75	  1353
 3375.85	  1355
 3375.95	  1355
 3376.05	  1357
 3376.15	  1358
 3376.25	  1361
 3376.35	  1360
 3376.45	  1361
 3376.55	  1363
 3376.65	  1364
 3376.75	  1364
 3376.85	  1367
 3376.95	  1369
 3377.05	  1369
 3377.15	  1371
 3377.25	  1372
 3377.35	  1372
 3377.45	  1373
 3377.55	  1374
 3377.65	  1377
 3377.75	  1375
 3377.85	  1377
 3377.95	  1378
 3378.05	  1380
 3378.15	  1380
 3378.25	  1381
 3378.35	  1383
 3378.45	  1384
 3378.55	  1384
 3378.65	  1386
 3378.75	  1387
 3378.85	  1389
 3378.95	  1390
 3379.05	  1392
 3379.15	  1392
 3379.25	  1394
 3379.35	  1396
 3379.45	  1396
 3379.55	  1397
 3379.65	  1398
 3379.75	  1400
 3379.85	  1400
 3379.95	  1401
 3380.05	  1402
 3380.15	  1404
 3380.25	  1404
 3380.35	  1405
 3380.45	  1405
 3380.55	  1406
 3380.65	  1407
 3380.75	  1407
 3380.85	  1408
 3380.95	  1408
 3381.05	  1409
 3381.15	  1410
 3381.25	  1411
 3381.35	  1412
 3381.45	  1412
 3381.55	  1415
 3381.65	  1415
 3381.75	  1416
 3381.85	  1416
 3381.95	  1418
 3382.05	  1419
 3382.15	  1419
 3382.25	  1420
 3382.35	  1421
 3382.45	  1421
 3382.55	  1422
 3382.65	  1423
 3382.75	  1423
 3382.85	  1424
 3382.95	  1427
 3383.06	  1427
 3383.16	  1429
 3383.26	  1428
 3383.36	  1431
 3383.46	  1431
 3383.56	  1432
 3383.66	  1433
 3383.76	  1435
 3383.86	  1434
 3383.96	  1436
 3384.06	  1437
 3384.16	  1437
 3384.26	  1437
 3384.36	  1439
 3384.46	  1439
 3384.56	  1440
 3384.66	  1438
 3384.76	  1442
 3384.86	  1442
 3384.96	  1443
 3385.06	  1444
 3385.16	  1445
 3385.26	  1445
 3385.36	  1446
 3385.46	  1448
 3385.56	  1447
 3385.66	  1447
 3385.76	  1450
 3385.86	  1450
 3385.96	  1450
 3386.06	  1448
 3386.16	  1452
 3386.26	  1452
 3386.36	  1453
 3386.46	  1453
 3386.56	  1456
 3386.66	  1454
 3386.76	  1455
 3386.86	  1456
 3386.96	  1457
 3387.06	  1457
 3387.16	  1460
 3387.26	  1460
 3387.36	  1462
 3387.46	  1459
 3387.56	  1464
 3387.66	  1463
 3387.76	  1464
 3387.86	  1465
 3387.96	  1467
 3388.06	  1465
 3388.16	  1466
 3388.26	  1466
 3388.36	  1467
 3388.46	  1466
 3388.56	  1468
 3388.66	  1468
 3388.76	  1469
 3388.86	  1466
 3388.96	  1470
 3389.06	  1470
 3389.16	  1470
 3389.26	  1471
 3389.36	  1473
 3389.46	  1471
 3389.56	  1473
 3389.66	  1473
 3389.76	  1474
 3389.86	  1473
 3389.96	  1476
 3390.06	  1477
 3390.16	  1476
 3390.26	  1474
 3390.36	  1478
 3390.46	  1479
 3390.56	  1480
 3390.66	  1481
 3390.76	  1484
 3390.86	  1483
 3390.96	  1483
 3391.07	  1484
 3391.17	  1485
 3391.27	  1484
 3391.37	  1486
 3391.47	  1486
 3391.57	  1486
 3391.67	  1483
 3391.77	  1487
 3391.87	  1487
 3391.97	  1488
 3392.07	  1488
 3392.17	  1492
 3392.27	  1490
 3392.37	  1491
 3392.47	  1492
 3392.57	  1493
 3392.67	  1491
 3392.77	  1494
 3392.87	  1494
 3392.97	  1495
 3393.07	  1493
 3393.17	  1497
 3393.27	  1497
 3393.37	  1497
 3393.47	  1498
 3393.57	  1501
 3393.67	  1499
 3393.77	  1499
 3393.87	  1500
 3393.97	  1501
 3394.07	  1500
 3394.17	  1502
 3394.27	  1502
 3394.37	  1503
 3394.47	  1501
 3394.57	  1504
 3394.67	  1504
 3394.77	  1504
 3394.87	  1505
 3394.97	  1507
 3395.07	  1506
 3395.17	  1506
 3395.27	  1507
 3395.37	  1508
 3395.47	  1508
 3395.57	  1510
 3395.67	  1510
 3395.77	  1511
 3395.87	  1510
 3395.97	  1512
 3396.07	  1512
 3396.17	  1513
 3396.27	  1513
 3396.37	  1515
 3396.47	  1514
 3396.57	  1514
 3396.67	  1515
 3396.77	  1515
 3396.87	  1515
 3396.97	  1517
 3397.07	  1518
 3397.17	  1519
 3397.27	  1518
 3397.37	  1520
 3397.47	  1520
 3397.57	  1521
 3397.67	  1522
 3397.77	  1525
 3397.87	  1524
 3397.97	  1525
 3398.07	  1525
 3398.17	  1526
 3398.27	  1526
 3398.37	  1527
 3398.47	  1528
 3398.57	  1530
 3398.67	  1531
 3398.77	  1532
 3398.87	  1531
 3398.97	  1532
 3399.08	  1532
 3399.18	  1534
 3399.28	  1532
 3399.38	  1533
 3399.48	  1533
 3399.58	  1534
 3399.68	  1534
 3399.78	  1534
 3399.88	  1536
 3399.98	  1536
 3400.08	  1538
 3400.18	  1538
 3400.28	  1539
 3400.38	  1539
 3400.48	  1540
 3400.58	  1541
 3400.68	  1541
 3400.78	  1542
 3400.88	  1542
 3400.98	  1543
 3401.08	  1544
 3401.18	  1545
 3401.28	  1545
 3401.38	  1546
 3401.48	  1549
 3401.58	  1548
 3401.68	  1550
 3401.78	  1551
 3401.88	  1552
 3401.98	  1552
 3402.08	  1553
 3402.18	  1554
 3402.28	  1555
 3402.38	  1555
 3402.48	  1557
 3402.58	  1557
 3402.68	  1557
 3402.78	  1558
 3402.88	  1561
 3402.98	  1560
 3403.08	  1562
 3403.18	  1562
 3403.28	  1564
 3403.38	  1564
 3403.48	  1566
 3403.58	  1567
 3403.68	  1567
 3403.78	  1568
 3403.88	  1570
 3403.98	  1570
 3404.08	  1571
 3404.18	  1572
 3404.28	  1576
 3404.38	  1574
 3404.48	  1576
 3404.58	  1577
 3404.68	  1578
 3404.78	  1578
 3404.88	  1580
 3404.98	  1580
 3405.08	  1581
 3405.18	  1582
 3405.28	  1584
 3405.38	  1583
 3405.48	  1585
 3405.58	  1586
 3405.68	  1589
 3405.78	  1587
 3405.88	  1590
 3405.98	  1591
 3406.08	  1593
 3406.18	  1592
 3406.28	  1595
 3406.38	  1596
 3406.48	  1597
 3406.58	  1598
 3406.68	  1600
 3406.78	  1600
 3406.88	  1602
 3406.98	  1604
 3407.09	  1607
 3407.19	  1605
 3407.29	  1608
 3407.39	  1609
 3407.49	  1611
 3407.59	  1610
 3407.69	  1613
 3407.79	  1615
 3407.89	  1616
 3407.99	  1617
 3408.09	  1620
 3408.19	  1620
 3408.29	  1622
 3408.39	  1624
 3408.49	  1628
 3408.59	  1626
 3408.69	  1629
 3408.79	  1630
 3408.89	  1631
 3408.99	  1630
 3409.09	  1635
 3409.19	  1637
 3409.29	  1639
 3409.39	  1640
 3409.49	  1643
 3409.59	  1643
 3409.69	  1644
 3409.79	  1646
 3409.89	  1650
 3409.99	  1648
 3410.09	  1652
 3410.19	  1654
 3410.29	  1656
 3410.39	  1655
 3410.49	  1660
 3410.59	  1661
 3410.69	  1663
 3410.79	  1665
 3410.89	  1669
 3410.99	  1669
 3411.09	  1671
 3411.19	  1673
 3411.29	  1678
 3411.39	  1677
 3411.49	  1681
 3411.59	  1683
 3411.69	  1686
 3411.79	  1684
 3411.89	  1691
 3411.99	  1694
 3412.09	  1697
 3412.19	  1700
 3412.29	  1704
 3412.39	  1704
 3412.49	  1707
 3412.59	  1709
 3412.69	  1713
 3412.79	  1713
 3412.89	  1717
 3412.99	  1720
 3413.09	  1722
 3413.19	  1721
 3413.29	  1727
 3413.39	  1731
 3413.49	  1734
 3413.59	  1737
 3413.69	  1742
 3413.79	  1743
 3413.89	  1746
 3413.99	  1749
 3414.09	  1753
 3414.19	  1754
 3414.29	  1758
 3414.39	  1762
 3414.49	  1765
 3414.59	  1764
 3414.69	  1772
 3414.79	  1776
 3414.89	  1779
 3414.99	  1783
  3415.1	  1789
  3415.2	  1790
  3415.3	  1793
  3415.4	  1796
  3415.5	  1800
  3415.6	  1803
  3415.7	  1808
  3415.8	  1813
  3415.9	  1817
  3416.0	  1817
  3416.1	  1825
  3416.2	  1829
  3416.3	  1834
  3416.4	  1838
  3416.5	  1845
  3416.6	  1848
  3416.7	  1853
  3416.8	  1858
  3416.9	  1862
  3417.0	  1866
  3417.1	  1872
  3417.2	  1877
  3417.3	  1882
  3417.4	  1884
  3417.5	  1893
  3417.6	  1898
  3417.7	  1903
  3417.8	  1908
  3417.9	  1916
  3418.0	  1919
  3418.1	  1925
  3418.2	  1931
  3418.3	  1935
  3418.4	  1941
  3418.5	  1947
  3418.6	  1953
  3418.7	  1958
  3418.8	  1961
  3418.9	  1970
  3419.0	  1975
  3419.1	  1981
  3419.2	  1987
  3419.3	  1994
  3419.4	  2000
  3419.5	  2006
  3419.6	  2012
  3419.7	  2018
  3419.8	  2026
  3419.9	  2033
  3420.0	  2040
  3420.1	  2047
  3420.2	  2052
  3420.3	  2062
  3420.4	  2069
  3420.5	  2077
  3420.6	  2085
  3420.7	  2094
  3420.8	  2101
  3420.9	  2109
  3421.0	  2116
  3421.1	  2123
  3421.2	  2133
  3421.3	  2141
  3421.4	  2149
  3421.5	  2157
  3421.6	  2165
  3421.7	  2175
  3421.8	  2183
  3421.9	  2192
  3422.0	  2201
  3422.1	  2209
  3422.2	  2218
  3422.3	  2227
  3422.4	  2236
  3422.5	  2244
  3422.6	  2254
  3422.7	  2263
  3422.8	  2272
  3422.9	  2282
 3423.01	  2292
 3423.11	  2302
 3423.21	  2313
 3423.31	  2324
 3423.41	  2334
 3423.51	  2344
 3423.61	  2355
 3423.71	  2366
 3423.81	  2375
 3423.91	  2383
 3424.01	  2396
 3424.11	  2406
 3424.21	  2416
 3424.31	  2427
 3424.41	  2439
 3424.51	  2448
 3424.61	  2459
 3424.71	  2470
 3424.81	  2481
 3424.91	  2492
 3425.01	  2504
 3425.11	  2515
 3425.21	  2527
 3425.31	  2538
 3425.41	  2554
 3425.51	  2565
 3425.61	  2578
 3425.71	  2592
 3425.81	  2608
 3425.91	  2618
 3426.01	  2632
 3426.11	  2645
 3426.21	  2659
 3426.31	  2672
 3426.41	  2687
 3426.51	  2700
 3426.61	  2714
 3426.71	  2726
 3426.81	  2742
 3426.91	  2754
 3427.01	  2769
 3427.11	  2784
 3427.21	  2800
 3427.31	  2811
 3427.41	  2825
 3427.51	  2839
 3427.61	  2852
 3427.71	  2866
 3427.81	  2881
 3427.91	  2896
 3428.01	  2910
 3428.11	  2923
 3428.21	  2938
 3428.31	  2950
 3428.41	  2964
 3428.51	  2979
 3428.61	  2997
 3428.71	  3006
 3428.81	  3022
 3428.91	  3035
 3429.01	  3049
 3429.11	  3062
 3429.21	  3078
 3429.31	  3091
 3429.41	  3106
 3429.51	  3118
 3429.61	  3134
 3429.71	  3146
 3429.81	  3161
 3429.91	  3175
 3430.01	  3193
 3430.11	  3202
 3430.21	  3217
 3430.31	  3228
 3430.41	  3242
 3430.51	  3255
 3430.61	  3269
 3430.71	  3282
 3430.81	  3296
 3430.91	  3309
 3431.02	  3324
 3431.12	  3336
 3431.22	  3349
 3431.32	  3361
 3431.42	  3377
 3431.52	  3384
 3431.62	  3397
 3431.72	  3408
 3431.82	  3419
 3431.92	  3429
 3432.02	  3440
 3432.12	  3449
 3432.22	  3459
 3432.32	  3467
 3432.42	  3475
 3432.52	  3483
 3432.62	  3491
 3432.72	  3499
 3432.82	  3512
 3432.92	  3514
 3433.02	  3521
 3433.12	  3527
 3433.22	  3534
 3433.32	  3539
 3433.42	  3547
 3433.52	  3553
 3433.62	  3559
 3433.72	  3563
 3433.82	  3568
 3433.92	  3573
 3434.02	  3576
 3434.12	  3579
 3434.22	  3587
 3434.32	  3585
 3434.42	  3587
 3434.52	  3590
 3434.62	  3592
 3434.72	  3592
 3434.82	  3594
 3434.92	  3595
 3435.02	  3596
 3435.12	  3597
 3435.22	  3596
 3435.32	  3595
 3435.42	  3593
 3435.52	  3591
 3435.62	  3592
 3435.72	  3583
 3435.82	  3577
 3435.92	  3571
 3436.02	  3564
 3436.12	  3556
 3436.22	  3552
 3436.32	  3545
 3436.42	  3537
 3436.52	  3529
 3436.62	  3521
 3436.72	  3513
 3436.82	  3504
 3436.92	  3496
 3437.02	  3492
 3437.12	  3477
 3437.22	  3466
 3437.32	  3457
 3437.42	  3445
 3437.52	  3432
 3437.62	  3421
 3437.72	  3408
 3437.82	  3394
 3437.92	  3380
 3438.02	  3366
 3438.12	  3351
 3438.22	  3335
 3438.32	  3320
 3438.42	  3305
 3438.52	  3286
 3438.62	  3269
 3438.72	  3253
 3438.82	  3234
 3438.92	  3215
 3439.03	  3197
 3439.13	  3177
 3439.23	  3157
 3439.33	  3137
 3439.43	  3117
 3439.53	  3097
 3439.63	  3076
 3439.73	  3054
 3439.83	  3034
 3439.93	  3011
 3440.03	  2988
 3440.13	  2966
 3440.23	  2944
 3440.33	  2921
 3440.43	  2899
 3440.53	  2875
 3440.63	  2851
 3440.73	  2828
 3440.83	  2803
 3440.93	  2780
 3441.03	  2755
 3441.13	  2730
 3441.23	  2706
 3441.33	  2681
 3441.43	  2655
 3441.53	  2630
 3441.63	  2606
 3441.73	  2581
 3441.83	  2557
 3441.93	  2532
 3442.03	  2507
 3442.13	  2483
 3442.23	  2457
 3442.33	  2432
 3442.43	  2407
 3442.53	  2381
 3442.63	  2355
 3442.73	  2331
 3442.83	  2304
 3442.93	  2278
 3443.03	  2252
 3443.13	  2227
 3443.23	  2202
 3443.33	  2177
 3443.43	  2151
 3443.53	  2126
 3443.63	  2100
 3443.73	  2077
 3443.83	  2053
 3443.93	  2027
 3444.03	  2001
 3444.13	  1980
 3444.23	  1955
 3444.33	  1932
 3444.43	  1908
 3444.53	  1886
 3444.63	  1861
 3444.73	  1838
 3444.83	  1816
 3444.93	  1795
 3445.03	  1770
 3445.13	  1750
 3445.23	  1730
 3445.33	  1708
 3445.43	  1684
 3445.53	  1668
 3445.63	  1646
 3445.73	  1626
 3445.83	  1606
 3445.93	  1588
 3446.03	  1568
 3446.13	  1551
 3446.23	  1532
 3446.33	  1515
 3446.43	  1496
 3446.53	  1481
 3446.63	  1464
 3446.73	  1448
 3446.83	  1428
 3446.93	  1416
 3447.04	  1399
 3447.14	  1384
 3447.24	  1369
 3447.34	  1356
 3447.44	  1338
 3447.54	  1325
 3447.64	  1310
 3447.74	  1296
 3447.84	  1281
 3447.94	  1269
 3448.04	  1255
 3448.14	  1243
 3448.24	  1227
 3448.34	  1219
 3448.44	  1206
 3448.54	  1194
 3448.64	  1183
 3448.74	  1173
 3448.84	  1160
 3448.94	  1150
 3449.04	  1139
 3449.14	  1129
 3449.24	  1118
 3449.34	  1111
 3449.44	  1101
 3449.54	  1093
 3449.64	  1080
 3449.74	  1076
 3449.84	  1067
 3449.94	  1059
 3450.04	  1052
 3450.14	  1047
 3450.24	  1037
 3450.34	  1031
 3450.44	  1024
 3450.54	  1017
 3450.64	  1010
 3450.74	  1005
 3450.84	   998
 3450.94	   993
 3451.04	   985
 3451.14	   982
 3451.24	   976
 3451.34	   971
 3451.44	   967
 3451.54	   966
 3451.64	   958
 3451.74	   955
 3451.84	   951
 3451.94	   947
 3452.04	   942
 3452.14	   940
 3452.24	   936
 3452.34	   933
 3452.44	   928
 3452.54	   928
 3452.64	   925
 3452.74	   922
 3452.84	   920
 3452.94	   920
 3453.04	   915
 3453.14	   913
 3453.24	   913
 3453.34	   912
 3453.44	   909
 3453.54	   910
 3453.64	   909
 3453.74	   909
 3453.84	   906
 3453.94	   907
 3454.04	   907
 3454.14	   906
 3454.24	   905
 3454.34	   907
 3454.44	   904
 3454.54	   903
 3454.64	   904
 3454.74	   904
 3454.84	   903
 3454.94	   905
 3455.05	   905
 3455.15	   905
 3455.25	   904
 3455.35	   906
 3455.45	   906
 3455.55	   906
 3455.65	   907
 3455.75	   909
 3455.85	   908
 3455.95	   909
 3456.05	   911
 3456.15	   912
 3456.25	   913
 3456.35	   915
 3456.45	   916
 3456.55	   917
 3456.65	   920
 3456.75	   920
 3456.85	   922
 3456.95	   923
 3457.05	   924
 3457.15	   926
 3457.25	   927
 3457.35	   929
 3457.45	   931
 3457.55	   933
 3457.65	   935
 3457.75	   937
 3457.85	   939
 3457.95	   942
 3458.05	   945
 3458.15	   946
 3458.25	   948
 3458.35	   950
 3458.45	   952
 3458.55	   954
 3458.65	   956
 3458.75	   957
 3458.85	   960
 3458.95	   961
 3459.05	   964
 3459.15	   966
 3459.25	   969
 3459.35	   972
 3459.45	   978
 3459.55	   978
 3459.65	   981
 3459.75	   983
 3459.85	   986
 3459.95	   988
 3460.05	   991
 3460.15	   993
 3460.25	   996
 3460.35	   998
 3460.45	  1001
 3460.55	  1003
 3460.65	  1006
 3460.75	  1009
 3460.85	  1014
 3460.95	  1013
 3461.05	  1016
 3461.15	  1019
 3461.25	  1021
 3461.35	  1022
 3461.45	  1027
 3461.55	  1030
 3461.65	  1032
 3461.75	  1035
 3461.85	  1039
 3461.95	  1041
 3462.05	  1043
 3462.15	  1046
 3462.25	  1051
 3462.35	  1049
 3462.45	  1052
 3462.55	  1055
 3462.65	  1057
 3462.75	  1058
 3462.85	  1063
 3462.95	  1066
 3463.06	  1068
 3463.16	  1071
 3463.26	  1075
 3463.36	  1076
 3463.46	  1080
 3463.56	  1082
 3463.66	  1088
 3463.76	  1087
 3463.86	  1091
 3463.96	  1093
 3464.06	  1095
 3464.16	  1094
 3464.26	  1100
 3464.36	  1103
 3464.46	  1105
 3464.56	  1107
 3464.66	  1111
 3464.76	  1110
 3464.86	  1112
 3464.96	  1114
 3465.06	  1119
 3465.16	  1118
 3465.26	  1122
 3465.36	  1125
 3465.46	  1127
 3465.56	  1126
 3465.66	  1132
 3465.76	  1134
 3465.86	  1137
 3465.96	  1140
 3466.06	  1145
 3466.16	  1145
 3466.26	  1149
 3466.36	  1152
 3466.46	  1156
 3466.56	  1156
 3466.66	  1159
 3466.76	  1161
 3466.86	  1163
 3466.96	  1161
 3467.06	  1168
 3467.16	  1170
 3467.26	  1173
 3467.36	  1175
 3467.46	  1179
 3467.56	  1180
 3467.66	  1182
 3467.76	  1183
 3467.86	  1187
 3467.96	  1188
 3468.06	  1191
 3468.16	  1194
 3468.26	  1196
 3468.36	  1195
 3468.46	  1201
 3468.56	  1203
 3468.66	  1205
 3468.76	  1208
 3468.86	  1211
 3468.96	  1210
 3469.06	  1213
 3469.16	  1214
 3469.26	  1217
 3469.36	  1218
 3469.46	  1221
 3469.56	  1223
 3469.66	  1225
 3469.76	  1224
 3469.86	  1230
 3469.96	  1232
 3470.06	  1234
 3470.16	  1236
 3470.26	  1240
 3470.36	  1240
 3470.46	  1242
 3470.56	  1244
 3470.66	  1245
 3470.76	  1247
 3470.86	  1249
 3470.96	  1251
 3471.07	  1253
 3471.17	  1251
 3471.27	  1257
 3471.37	  1258
 3471.47	  1259
 3471.57	  1261
 3471.67	  1264
 3471.77	  1264
 3471.87	  1267
 3471.97	  1268
 3472.07	  1269
 3472.17	  1271
 3472.27	  1273
 3472.37	  1275
 3472.47	  1277
 3472.57	  1275
 3472.67	  1280
 3472.77	  1282
 3472.87	  1284
 3472.97	  1285
 3473.07	  1288
 3473.17	  1288
 3473.27	  1290
 3473.37	  1292
 3473.47	  1292
 3473.57	  1296
 3473.67	  1298
 3473.77	  1300
 3473.87	  1302
 3473.97	  1301
 3474.07	  1305
 3474.17	  1307
 3474.27	  1308
 3474.37	  1310
 3474.47	  1312
 3474.57	  1313
 3474.67	  1314
 3474.77	  1315
 3474.87	  1315
 3474.97	  1318
 3475.07	  1320
 3475.17	  1322
 3475.27	  1324
 3475.37	  1325
 3475.47	  1327
 3475.57	  1329
 3475.67	  1330
 3475.77	  1331
 3475.87	  1334
 3475.97	  1335
 3476.07	  1336
 3476.17	  1337
 3476.27	  1336
 3476.37	  1340
 3476.47	  1341
 3476.57	  1343
 3476.67	  1344
 3476.77	  1345
 3476.87	  1346
 3476.97	  1348
 3477.07	  1349
 3477.17	  1350
 3477.27	  1352
 3477.37	  1354
 3477.47	  1355
 3477.57	  1356
 3477.67	  1355
 3477.77	  1359
 3477.87	  1359
 3477.97	  1361
 3478.07	  1361
 3478.17	  1364
 3478.27	  1363
 3478.37	  1364
 3478.47	  1365
 3478.57	  1366
 3478.67	  1367
 3478.77	  1369
 3478.87	  1369
 3478.97	  1371
 3479.08	  1371
 3479.18	  1375
 3479.28	  1376
 3479.38	  1377
 3479.48	  1379
 3479.58	  1382
 3479.68	  1380
 3479.78	  1382
 3479.88	  1383
 3479.98	  1385
 3480.08	  1385
 3480.18	  1388
 3480.28	  1388
 3480.38	  1390
 3480.48	  1389
 3480.58	  1393
 3480.68	  1392
 3480.78	  1393
 3480.88	  1394
 3480.98	  1399
 3481.08	  1396
 3481.18	  1397
 3481.28	  1398
 3481.38	  1399
 3481.48	  1398
 3481.58	  1401
 3481.68	  1402
 3481.78	  1403
 3481.88	  1403
 3481.98	  1405
 3482.08	  1405
 3482.18	  1406
 3482.28	  1407
 3482.38	  1413
 3482.48	  1409
 3482.58	  1410
 3482.68	  1412
 3482.78	  1413
 3482.88	  1413
 3482.98	  1416
 3483.08	  1416
 3483.18	  1417
 3483.28	  1418
 3483.38	  1420
 3483.48	  1420
 3483.58	  1421
 3483.68	  1422
 3483.78	  1429
 3483.88	  1424
 3483.98	  1425
 3484.08	  1427
 3484.18	  1427
 3484.28	  1426
 3484.38	  1429
 3484.48	  1429
 3484.58	  1430
 3484.68	  1431
 3484.78	  1432
 3484.88	  1432
 3484.98	  1433
 3485.08	  1434
 3485.18	  1441
 3485.28	  1436
 3485.38	  1438
 3485.48	  1440
 3485.58	  1440
 3485.68	  1440
 3485.78	  1443
 3485.88	  1444
 3485.98	  1444
 3486.08	  1447
 3486.18	  1446
 3486.28	  1447
 3486.38	  1448
 3486.48	  1449
 3486.58	  1454
 3486.68	  1449
 3486.78	  1450
 3486.88	  1450
 3486.98	  1450
 3487.09	  1449
 3487.19	  1452
 3487.29	  1452
 3487.39	  1453
 3487.49	  1454
 3487.59	  1455
 3487.69	  1455
 3487.79	  1456
 3487.89	  1456
 3487.99	  1460
 3488.09	  1456
 3488.19	  1457
 3488.29	  1458
 3488.39	  1459
 3488.49	  1458
 3488.59	  1461
 3488.69	  1462
 3488.79	  1463
 3488.89	  1465
 3488.99	  1465
 3489.09	  1466
 3489.19	  1467
 3489.29	  1467
 3489.39	  1469
 3489.49	  1468
 3489.59	  1469
 3489.69	  1470
 3489.79	  1471
 3489.89	  1470
 3489.99	  1471
 3490.09	  1472
 3490.19	  1473
 3490.29	  1474
 3490.39	  1474
 3490.49	  1476
 3490.59	  1477
 3490.69	  1477
 3490.79	  1479
 3490.89	  1479
 3490.99	  1480
 3491.09	  1480
 3491.19	  1481
 3491.29	  1480
 3491.39	  1481
 3491.49	  1482
 3491.59	  1483
 3491.69	  1483
 3491.79	  1483
 3491.89	  1484
 3491.99	  1485
 3492.09	  1485
 3492.19	  1485
 3492.29	  1487
 3492.39	  1487
 3492.49	  1488
 3492.59	  1489
 3492.69	  1490
 3492.79	  1490
 3492.89	  1491
 3492.99	  1491
 3493.09	  1492
 3493.19	  1492
 3493.29	  1495
 3493.39	  1496
 3493.49	  1496
 3493.59	  1495
 3493.69	  1498
 3493.79	  1498
 3493.89	  1498
 3493.99	  1500
 3494.09	  1501
 3494.19	  1500
 3494.29	  1502
 3494.39	  1503
 3494.49	  1502
 3494.59	  1502
 3494.69	  1503
 3494.79	  1503
 3494.89	  1504
 3494.99	  1502
  3495.1	  1507
  3495.2	  1507
  3495.3	  1507
  3495.4	  1508
  3495.5	  1509
  3495.6	  1508
  3495.7	  1509
  3495.8	  1509
  3495.9	  1510
  3496.0	  1509
  3496.1	  1511
  3496.2	  1511
  3496.3	  1511
  3496.4	  1509
  3496.5	  1513
  3496.6	  1513
  3496.7	  1514
  3496.8	  1515
  3496.9	  1517
  3497.0	  1516
  3497.1	  1517
  3497.2	  1518
  3497.3	  1519
  3497.4	  1517
  3497.5	  1520
  3497.6	  1520
  3497.7	  1520
  3497.8	  1517
  3497.9	  1522
  3498.0	  1521
  3498.1	  1522
  3498.2	  1523
  3498.3	  1525
  3498.4	  1523
  3498.5	  1525
  3498.6	  1525
  3498.7	  1526
  3498.8	  1525
  3498.9	  1527
  3499.0	  1527
  3499.1	  1528
  3499.2	  1526
  3499.3	  1531
  3499.4	  1531
  3499.5	  1531
  3499.6	  1532
  3499.7	  1536
  3499.8	  1534
  3499.9	  1534
  3500.0	  1535
  3500.1	  1536
  3500.2	  1535
  3500.3	  1537
  3500.4	  1538
  3500.5	  1539
  3500.6	  1536
  3500.7	  1540
  3500.8	  1541
  3500.9	  1541
  3501.0	  1542
  3501.1	  1545
  3501.2	  1543
  3501.3	  1543
  3501.4	  1544
  3501.5	  1544
  3501.6	  1544
  3501.7	  1546
  3501.8	  1547
  3501.9	  1549
  3502.0	  1547
  3502.1	  1551
  3502.2	  1552
  3502.3	  1552
  3502.4	  1553
  3502.5	  1556
  3502.6	  1555
  3502.7	  1555
  3502.8	  1557
  3502.9	  1557
 3503.01	  1557
 3503.11	  1559
 3503.21	  1559
 3503.31	  1560
 3503.41	  1560
 3503.51	  1562
 3503.61	  1563
 3503.71	  1563
 3503.81	  1564
 3503.91	  1566
 3504.01	  1565
 3504.11	  1566
 3504.21	  1567
 3504.31	  1567
 3504.41	  1568
 3504.51	  1569
 3504.61	  1569
 3504.71	  1570
 3504.81	  1571
 3504.91	  1572
 3505.01	  1572
 3505.11	  1573
 3505.21	  1575
 3505.31	  1578
 3505.41	  1578
 3505.51	  1579
 3505.61	  1581
 3505.71	  1581
 3505.81	  1582
 3505.91	  1584
 3506.01	  1584
 3506.11	  1585
 3506.21	  1588
 3506.31	  1587
 3506.41	  1588
 3506.51	  1588
 3506.61	  1589
 3506.71	  1590
 3506.81	  1591
 3506.91	  1592
 3507.01	  1594
 3507.11	  1594
 3507.21	  1596
 3507.31	  1596
 3507.41	  1597
 3507.51	  1599
 3507.61	  1603
 3507.71	  1601
 3507.81	  1602
 3507.91	  1603
 3508.01	  1604
 3508.11	  1603
 3508.21	  1606
 3508.31	  1607
 3508.41	  1608
 3508.51	  1609
 3508.61	  1611
 3508.71	  1612
 3508.81	  1613
 3508.91	  1615
 3509.01	  1620
 3509.11	  1617
 3509.21	  1619
 3509.31	  1620
 3509.41	  1621
 3509.51	  1621
 3509.61	  1624
 3509.71	  1624
 3509.81	  1626
 3509.91	  1627
 3510.01	  1630
 3510.11	  1630
 3510.21	  1632
 3510.31	  1633
 3510.41	  1638
 3510.51	  1635
 3510.61	  1637
 3510.71	  1638
 3510.81	  1639
 3510.91	  1638
 3511.02	  1642
 3511.12	  1644
 3511.22	  1645
 3511.32	  1647
 3511.42	  1650
 3511.52	  1650
 3511.62	  1653
 3511.72	  1654
 3511.82	  1659
 3511.92	  1657
 3512.02	  1661
 3512.12	  1663
 3512.22	  1664
 3512.32	  1662
 3512.42	  1668
 3512.52	  1669
 3512.62	  1671
 3512.72	  1673
 3512.82	  1677
 3512.92	  1676
 3513.02	  1678
 3513.12	  1680
 3513.22	  1685
 3513.32	  1683
 3513.42	  1687
 3513.52	  1690
 3513.62	  1692
 3513.72	  1690
 3513.82	  1697
 3513.92	  1698
 3514.02	  1700
 3514.12	  1703
 3514.22	  1707
 3514.32	  1707
 3514.42	  1709
 3514.52	  1711
 3514.62	  1714
 3514.72	  1714
 3514.82	  1718
 3514.92	  1720
 3515.02	  1722
 3515.12	  1720
 3515.22	  1728
 3515.32	  1730
 3515.42	  1733
 3515.52	  1735
 3515.62	  1740
 3515.72	  1741
 3515.82	  1743
 3515.92	  1746
 3516.02	  1749
 3516.12	  1750
 3516.22	  1754
 3516.32	  1756
 3516.42	  1759
 3516.52	  1759
 3516.62	  1766
 3516.72	  1768
 3516.82	  1771
 3516.92	  1775
 3517.02	  1779
 3517.12	  1781
 3517.22	  1784
 3517.32	  1787
 3517.42	  1789
 3517.52	  1793
 3517.62	  1797
 3517.72	  1800
 3517.82	  1803
 3517.92	  1802
 3518.02	  1809
 3518.12	  1812
 3518.22	  1816
 3518.32	  1820
 3518.42	  1825
 3518.52	  1827
 3518.62	  1832
 3518.72	  1835
 3518.82	  1838
 3518.92	  1842
 3519.03	  1847
 3519.13	  1851
 3519.23	  1855
 3519.33	  1857
 3519.43	  1863
 3519.53	  1867
 3519.63	  1871
 3519.73	  1875
 3519.83	  1881
 3519.93	  1884
 3520.03	  1888
 3520.13	  1893
 3520.23	  1895
 3520.33	  1902
 3520.43	  1905
 3520.53	  1909
 3520.63	  1915
 3520.73	  1917
 3520.83	  1922
 3520.93	  1927
 3521.03	  1933
 3521.13	  1938
 3521.23	  1943
 3521.33	  1948
 3521.43	  1952
 3521.53	  1957
 3521.63	  1960
 3521.73	  1967
 3521.83	  1971
 3521.93	  1976
 3522.03	  1982
 3522.13	  1988
 3522.23	  1992
 3522.33	  1998
 3522.43	  2003
 3522.53	  2009
 3522.63	  2015
 3522.73	  2021
 3522.83	  2026
 3522.93	  2032
 3523.03	  2036
 3523.13	  2045
 3523.23	  2050
 3523.33	  2057
 3523.43	  2063
 3523.53	  2071
 3523.63	  2076
 3523.73	  2082
 3523.83	  2088
 3523.93	  2095
 3524.03	  2101
 3524.13	  2109
 3524.23	  2116
 3524.33	  2122
 3524.43	  2127
 3524.53	  2136
 3524.63	  2142
 3524.73	  2150
 3524.83	  2156
 3524.93	  2167
 3525.03	  2171
 3525.13	  2178
 3525.23	  2185
 3525.33	  2191
 3525.43	  2198
 3525.53	  2206
 3525.63	  2213
 3525.73	  2220
 3525.83	  2227
 3525.93	  2236
 3526.03	  2244
 3526.13	  2252
 3526.23	  2260
 3526.33	  2272
 3526.43	  2275
 3526.53	  2283
 3526.63	  2292
 3526.73	  2300
 3526.83	  2307
 3526.93	  2317
 3527.04	  2325
 3527.14	  2334
 3527.24	  2343
 3527.34	  2353
 3527.44	  2361
 3527.54	  2370
 3527.64	  2379
 3527.74	  2393
 3527.84	  2396
 3527.94	  2404
 3528.04	  2413
 3528.14	  2422
 3528.24	  2430
 3528.34	  2441
 3528.44	  2450
 3528.54	  2460
 3528.64	  2469
 3528.74	  2479
 3528.84	  2488
 3528.94	  2497
 3529.04	  2507
 3529.14	  2522
 3529.24	  2527
 3529.34	  2536
 3529.44	  2546
 3529.54	  2555
 3529.64	  2562
 3529.74	  2574
 3529.84	  2583
 3529.94	  2593
 3530.04	  2602
 3530.14	  2612
 3530.24	  2622
 3530.34	  2631
 3530.44	  2641
 3530.54	  2656
 3530.64	  2661
 3530.74	  2670
 3530.84	  2680
 3530.94	  2688
 3531.04	  2697
 3531.14	  2708
 3531.24	  2718
 3531.34	  2728
 3531.44	  2737
 3531.54	  2747
 3531.64	  2756
 3531.74	  2767
 3531.84	  2776
 3531.94	  2792
 3532.04	  2797
 3532.14	  2807
 3532.24	  2818
 3532.34	  2828
 3532.44	  2837
 3532.54	  2848
 3532.64	  2857
 3532.74	  2867
 3532.84	  2877
 3532.94	  2887
 3533.04	  2896
 3533.14	  2906
 3533.24	  2916
 3533.34	  2928
 3533.44	  2934
 3533.54	  2944
 3533.64	  2953
 3533.74	  2961
 3533.84	  2970
 3533.94	  2982
 3534.04	  2990
 3534.14	  2998
 3534.24	  3007
 3534.34	  3016
 3534.44	  3024
 3534.54	  3033
 3534.64	  3041
 3534.74	  3050
 3534.84	  3057
 3534.94	  3065
 3535.05	  3074
 3535.15	  3082
 3535.25	  3089
 3535.35	  3097
 3535.45	  3104
 3535.55	  3112
 3535.65	  3120
 3535.75	  3125
 3535.85	  3133
 3535.95	  3139
 3536.05	  3145
 3536.15	  3150
 3536.25	  3157
 3536.35	  3163
 3536.45	  3168
 3536.55	  3173
 3536.65	  3179
 3536.75	  3184
 3536.85	  3189
 3536.95	  3194
 3537.05	  3198
 3537.15	  3202
 3537.25	  3209
 3537.35	  3213
 3537.45	  3218
 3537.55	  3219
 3537.65	  3225
 3537.75	  3227
 3537.85	  3230
 3537.95	  3232
 3538.05	  3236
 3538.15	  3236
 3538.25	  3239
 3538.35	  3241
 3538.45	  3243
 3538.55	  3241
 3538.65	  3243
 3538.75	  3244
 3538.85	  3243
 3538.95	  3239
 3539.05	  3244
 3539.15	  3242
 3539.25	  3241
 3539.35	  3240
 3539.45	  3240
 3539.55	  3236
 3539.65	  3234
 3539.75	  3232
 3539.85	  3230
 3539.95	  3225
 3540.05	  3224
 3540.15	  3221
 3540.25	  3216
 3540.35	  3209
 3540.45	  3208
 3540.55	  3202
 3540.65	  3197
 3540.75	  3192
 3540.85	  3188
 3540.95	  3181
 3541.05	  3175
 3541.15	  3169
 3541.25	  3161
 3541.35	  3153
 3541.45	  3148
 3541.55	  3140
 3541.65	  3133
 3541.75	  3122
 3541.85	  3118
 3541.95	  3108
 3542.05	  3100
 3542.15	  3093
 3542.25	  3085
 3542.35	  3072
 3542.45	  3062
 3542.55	  3050
 3542.65	  3039
 3542.75	  3026
 3542.85	  3016
 3542.95	  3005
 3543.06	  2993
 3543.16	  2977
 3543.26	  2969
 3543.36	  2957
 3543.46	  2944
 3543.56	  2932
 3543.66	  2920
 3543.76	  2904
 3543.86	  2891
 3543.96	  2877
 3544.06	  2863
 3544.16	  2848
 3544.26	  2834
 3544.36	  2819
 3544.46	  2804
 3544.56	  2787
 3544.66	  2774
 3544.76	  2758
 3544.86	  2742
 3544.96	  2726
 3545.06	  2712
 3545.16	  2694
 3545.26	  2679
 3545.36	  2662
 3545.46	  2646
 3545.56	  2630
 3545.66	  2615
 3545.76	  2600
 3545.86	  2584
 3545.96	  2565
 3546.06	  2549
 3546.16	  2532
 3546.26	  2514
 3546.36	  2497
 3546.46	  2481
 3546.56	  2462
 3546.66	  2445
 3546.76	  2429
 3546.86	  2411
 3546.96	  2394
 3547.06	  2375
 3547.16	  2357
 3547.26	  2340
 3547.36	  2323
 3547.46	  2306
 3547.56	  2289
 3547.66	  2271
 3547.76	  2253
 3547.86	  2237
 3547.96	  2219
 3548.06	  2201
 3548.16	  2184
 3548.26	  2168
 3548.36	  2152
 3548.46	  2135
 3548.56	  2118
 3548.66	  2103
 3548.76	  2087
 3548.86	  2068
 3548.96	  2052
 3549.06	  2035
 3549.16	  2020
 3549.26	  2002
 3549.36	  1987
 3549.46	  1971
 3549.56	  1955
 3549.66	  1938
 3549.76	  1923
 3549.86	  1906
 3549.96	  1890
 3550.06	  1875
 3550.16	  1862
 3550.26	  1844
 3550.36	  1829
 3550.46	  1813
 3550.56	  1798
 3550.66	  1781
 3550.76	  1767
 3550.86	  1752
 3550.96	  1737
 3551.07	  1722
 3551.17	  1708
 3551.27	  1693
 3551.37	  1679
 3551.47	  1664
 3551.57	  1653
 3551.67	  1635
 3551.77	  1623
 3551.87	  1608
 3551.97	  1595
 3552.07	  1580
 3552.17	  1569
 3552.27	  1557
 3552.37	  1545
 3552.47	  1532
 3552.57	  1521
 3552.67	  1508
 3552.77	  1496
 3552.87	  1485
 3552.97	  1476
 3553.07	  1462
 3553.17	  1453
 3553.27	  1443
 3553.37	  1432
 3553.47	  1420
 3553.57	  1412
 3553.67	  1402
 3553.77	  1392
 3553.87	  1382
 3553.97	  1375
 3554.07	  1364
 3554.17	  1354
 3554.27	  1345
 3554.37	  1338
 3554.47	  1326
 3554.57	  1319
 3554.67	  1312
 3554.77	  1303
 3554.87	  1292
 3554.97	  1288
 3555.07	  1280
 3555.17	  1273
 3555.27	  1264
 3555.37	  1259
 3555.47	  1249
 3555.57	  1242
 3555.67	  1235
 3555.77	  1230
 3555.87	  1221
 3555.97	  1216
 3556.07	  1211
 3556.17	  1205
 3556.27	  1196
 3556.37	  1194
 3556.47	  1188
 3556.57	  1182
 3556.67	  1177
 3556.77	  1174
 3556.87	  1167
 3556.97	  1162
 3557.07	  1157
 3557.17	  1154
 3557.27	  1147
 3557.37	  1144
 3557.47	  1140
 3557.57	  1135
 3557.67	  1128
 3557.77	  1128
 3557.87	  1125
 3557.97	  1121
 3558.07	  1118
 3558.17	  1116
 3558.27	  1111
 3558.37	  1108
 3558.47	  1105
 3558.57	  1103
 3558.67	  1099
 3558.77	  1097
 3558.87	  1094
 3558.97	  1092
 3559.08	  1086
 3559.18	  1087
 3559.28	  1085
 3559.38	  1083
 3559.48	  1081
 3559.58	  1080
 3559.68	  1077
 3559.78	  1076
 3559.88	  1074
 3559.98	  1071
 3560.08	  1070
 3560.18	  1069
 3560.28	  1068
 3560.38	  1066
 3560.48	  1063
 3560.58	  1065
 3560.68	  1064
 3560.78	  1064
 3560.88	  1063
 3560.98	  1064
 3561.08	  1062
 3561.18	  1061
 3561.28	  1061
 3561.38	  1059
 3561.48	  1060
 3561.58	  1060
 3561.68	  1061
 3561.78	  1061
 3561.88	  1059
 3561.98	  1061
 3562.08	  1060
 3562.18	  1060
 3562.28	  1061
 3562.38	  1062
 3562.48	  1062
 3562.58	  1062
 3562.68	  1063
 3562.78	  1061
 3562.88	  1063
 3562.98	  1062
 3563.08	  1063
 3563.18	  1063
 3563.28	  1064
 3563.38	  1064
 3563.48	  1065
 3563.58	  1065
 3563.68	  1067
 3563.78	  1068
 3563.88	  1070
 3563.98	  1071
 3564.08	  1072
 3564.18	  1071
 3564.28	  1074
 3564.38	  1075
 3564.48	  1077
 3564.58	  1077
 3564.68	  1080
 3564.78	  1079
 3564.88	  1081
 3564.98	  1082
 3565.08	  1084
 3565.18	  1085
 3565.28	  1088
 3565.38	  1089
 3565.48	  1090
 3565.58	  1090
 3565.68	  1095
 3565.78	  1095
 3565.88	  1098
 3565.98	  1099
 3566.08	  1104
 3566.18	  1102
 3566.28	  1102
 3566.38	  1104
 3566.48	  1105
 3566.58	  1105
 3566.68	  1107
 3566.78	  1109
 3566.88	  1110
 3566.98	  1110
 3567.09	  1115
 3567.19	  1116
 3567.29	  1119
 3567.39	  1121
 3567.49	  1127
 3567.59	  1124
 3567.69	  1127
 3567.79	  1129
 3567.89	  1131
 3567.99	  1132
 3568.09	  1135
 3568.19	  1136
 3568.29	  1138
 3568.39	  1139
 3568.49	  1143
 3568.59	  1143
 3568.69	  1145
 3568.79	  1148
 3568.89	  1154
 3568.99	  1152
 3569.09	  1154
 3569.19	  1156
 3569.29	  1158
 3569.39	  1159
 3569.49	  1163
 3569.59	  1165
 3569.69	  1167
 3569.79	  1169
 3569.89	  1172
 3569.99	  1173
 3570.09	  1175
 3570.19	  1178
 3570.29	  1185
 3570.39	  1181
 3570.49	  1184
 3570.59	  1185
 3570.69	  1187
 3570.79	  1187
 3570.89	  1191
 3570.99	  1193
 3571.09	  1195
 3571.19	  1197
 3571.29	  1199
 3571.39	  1200
 3571.49	  1203
 3571.59	  1204
 3571.69	  1211
 3571.79	  1208
 3571.89	  1211
 3571.99	  1213
 3572.09	  1215
 3572.19	  1215
 3572.29	  1218
 3572.39	  1220
 3572.49	  1222
 3572.59	  1224
 3572.69	  1226
 3572.79	  1227
 3572.89	  1229
 3572.99	  1231
 3573.09	  1236
 3573.19	  1235
 3573.29	  1237
 3573.39	  1238
 3573.49	  1240
 3573.59	  1242
 3573.69	  1244
 3573.79	  1245
 3573.89	  1247
 3573.99	  1249
 3574.09	  1251
 3574.19	  1253
 3574.29	  1255
 3574.39	  1258
 3574.49	  1261
 3574.59	  1261
 3574.69	  1263
 3574.79	  1265
 3574.89	  1267
 3574.99	  1269
  3575.1	  1271
  3575.2	  1273
  3575.3	  1275
  3575.4	  1276
  3575.5	  1278
  3575.6	  1281
  3575.7	  1282
  3575.8	  1284
  3575.9	  1286
  3576.0	  1288
  3576.1	  1289
  3576.2	  1291
  3576.3	  1292
  3576.4	  1294
  3576.5	  1294
  3576.6	  1296
  3576.7	  1298
  3576.8	  1300
  3576.9	  1300
  3577.0	  1303
  3577.1	  1305
  3577.2	  1306
  3577.3	  1307
  3577.4	  1311
  3577.5	  1312
  3577.6	  1314
  3577.7	  1315
  3577.8	  1318
  3577.9	  1318
  3578.0	  1320
  3578.1	  1322
  3578.2	  1322
  3578.3	  1323
  3578.4	  1327
  3578.5	  1328
  3578.6	  1329
  3578.7	  1328
  3578.8	  1332
  3578.9	  1333
  3579.0	  1335
  3579.1	  1337
  3579.2	  1340
  3579.3	  1340
  3579.4	  1341
  3579.5	  1343
  3579.6	  1344
  3579.7	  1345
  3579.8	  1348
  3579.9	  1350
  3580.0	  1352
  3580.1	  1351
  3580.2	  1356
  3580.3	  1357
  3580.4	  1359
  3580.5	  1360
  3580.6	  1363
  3580.7	  1363
  3580.8	  1364
  3580.9	  1366
  3581.0	  1367
  3581.1	  1367
  3581.2	  1370
  3581.3	  1371
  3581.4	  1372
  3581.5	  1370
  3581.6	  1376
  3581.7	  1376
  3581.8	  1378
  3581.9	  1379
  3582.0	  1382
  3582.1	  1381
  3582.2	  1382
  3582.3	  1384
  3582.4	  1386
  3582.5	  1386
  3582.6	  1389
  3582.7	  1390
  3582.8	  1391
  3582.9	  1389
 3583.01	  1393
 3583.11	  1394
 3583.21	  1394
 3583.31	  1396
 3583.41	  1399
 3583.51	  1398
 3583.61	  1399
 3583.71	  1401
 3583.81	  1403
 3583.91	  1403
 3584.01	  1406
 3584.11	  1407
 3584.21	  1409
 3584.31	  1409
 3584.41	  1413
 3584.51	  1413
 3584.61	  1415
 3584.71	  1417
 3584.81	  1420
 3584.91	  1419
 3585.01	  1421
 3585.11	  1422
 3585.21	  1424
 3585.31	  1423
 3585.41	  1425
 3585.51	  1426
 3585.61	  1427
 3585.71	  1427
 3585.81	  1429
 3585.91	  1430
 3586.01	  1431
 3586.11	  1432
 3586.21	  1434
 3586.31	  1435
 3586.41	  1436
 3586.51	  1437
 3586.61	  1437
 3586.71	  1438
 3586.81	  1439
 3586.91	  1440
 3587.01	  1440
 3587.11	  1442
 3587.21	  1442
 3587.31	  1443
 3587.41	  1444
 3587.51	  1446
 3587.61	  1446
 3587.71	  1448
 3587.81	  1448
 3587.91	  1449
 3588.01	  1450
 3588.11	  1451
 3588.21	  1451
 3588.31	  1453
 3588.41	  1454
 3588.51	  1457
 3588.61	  1456
 3588.71	  1457
 3588.81	  1458
 3588.91	  1460
 3589.01	  1461
 3589.11	  1463
 3589.21	  1463
 3589.31	  1464
 3589.41	  1465
 3589.51	  1466
 3589.61	  1466
 3589.71	  1467
 3589.81	  1467
 3589.91	  1471
 3590.01	  1469
 3590.11	  1470
 3590.21	  1471
 3590.31	  1472
 3590.41	  1471
 3590.51	  1473
 3590.61	  1474
 3590.71	  1474
 3590.81	  1475
 3590.91	  1478
 3591.02	  1477
 3591.12	  1478
 3591.22	  1480
 3591.32	  1483
 3591.42	  1480
 3591.52	  1482
 3591.62	  1483
 3591.72	  1484
 3591.82	  1481
 3591.92	  1486
 3592.02	  1487
 3592.12	  1487
 3592.22	  1488
 3592.32	  1491
 3592.42	  1490
 3592.52	  1492
 3592.62	  1492
 3592.72	  1496
 3592.82	  1493
 3592.92	  1495
 3593.02	  1496
 3593.12	  1497
 3593.22	  1494
 3593.32	  1498
 3593.42	  1499
 3593.52	  1499
 3593.62	  1500
 3593.72	  1503
 3593.82	  1500
 3593.92	  1501
 3594.02	  1501
 3594.12	  1503
 3594.22	  1501
 3594.32	  1503
 3594.42	  1503
 3594.52	  1505
 3594.62	  1501
 3594.72	  1506
 3594.82	  1507
 3594.92	  1507
 3595.02	  1508
 3595.12	  1511
 3595.22	  1509
 3595.32	  1510
 3595.42	  1511
 3595.52	  1512
 3595.62	  1511
 3595.72	  1513
 3595.82	  1513
 3595.92	  1514
 3596.02	  1511
 3596.12	  1515
 3596.22	  1516
 3596.32	  1516
 3596.42	  1517
 3596.52	  1520
 3596.62	  1519
 3596.72	  1520
 3596.82	  1521
 3596.92	  1521
 3597.02	  1522
 3597.12	  1523
 3597.22	  1523
 3597.32	  1524
 3597.42	  1521
 3597.52	  1525
 3597.62	  1525
 3597.72	  1526
 3597.82	  1526
 3597.92	  1529
 3598.02	  1529
 3598.12	  1530
 3598.22	  1531
 3598.32	  1531
 3598.42	  1532
 3598.52	  1534
 3598.62	  1535
 3598.72	  1536
 3598.82	  1534
 3598.92	  1537
 3599.03	  1538
 3599.13	  1538
 3599.23	  1538
 3599.33	  1539
 3599.43	  1538
 3599.53	  1538
 3599.63	  1539
 3599.73	  1538
 3599.83	  1540
 3599.93	  1541
 3600.03	  1542
 3600.13	  1542
 3600.23	  1541
 3600.33	  1543
 3600.43	  1544
 3600.53	  1544
 3600.63	  1544
 3600.73	  1544
 3600.83	  1544
 3600.93	  1544
 3601.03	  1545
 3601.13	  1544
 3601.23	  1547
 3601.33	  1547
 3601.43	  1547
 3601.53	  1548
 3601.63	  1549
 3601.73	  1549
 3601.83	  1549
 3601.93	  1550
 3602.03	  1549
 3602.13	  1550
 3602.23	  1551
 3602.33	  1551
 3602.43	  1553
 3602.53	  1552
 3602.63	  1555
 3602.73	  1555
 3602.83	  1557
 3602.93	  1557
 3603.03	  1559
 3603.13	  1558
 3603.23	  1558
 3603.33	  1559
 3603.43	  1559
 3603.53	  1558
 3603.63	  1560
 3603.73	  1559
 3603.83	  1559
 3603.93	  1558
 3604.03	  1560
 3604.13	  1560
 3604.23	  1561
 3604.33	  1561
 3604.43	  1566
 3604.53	  1562
 3604.63	  1563
 3604.73	  1563
 3604.83	  1564
 3604.93	  1564
 3605.03	  1566
 3605.13	  1566
 3605.23	  1566
 3605.33	  1566
 3605.43	  1568
 3605.53	  1567
 3605.63	  1569
 3605.73	  1569
 3605.83	  1574
 3605.93	  1570
 3606.03	  1570
 3606.13	  1571
 3606.23	  1571
 3606.33	  1569
 3606.43	  1572
 3606.53	  1572
 3606.63	  1572
 3606.73	  1573
 3606.83	  1574
 3606.93	  1573
 3607.04	  1574
 3607.14	  1573
 3607.24	  1579
 3607.34	  1574
 3607.44	  1574
 3607.54	  1575
 3607.64	  1575
 3607.74	  1574
 3607.84	  1576
 3607.94	  1576
 3608.04	  1576
 3608.14	  1577
 3608.24	  1577
 3608.34	  1577
 3608.44	  1579
 3608.54	  1579
 3608.64	  1584
 3608.74	  1579
 3608.84	  1579
 3608.94	  1579
 3609.04	  1580
 3609.14	  1579
 3609.24	  1581
 3609.34	  1582
 3609.44	  1582
 3609.54	  1582
 3609.64	  1583
 3609.74	  1583
 3609.84	  1583
 3609.94	  1584
 3610.04	  1588
 3610.14	  1585
 3610.24	  1585
 3610.34	  1586
 3610.44	  1586
 3610.54	  1585
 3610.64	  1586
 3610.74	  1586
 3610.84	  1586
 3610.94	  1586
 3611.04	  1586
 3611.14	  1586
 3611.24	  1587
 3611.34	  1587
 3611.44	  1590
 3611.54	  1588
 3611.64	  1588
 3611.74	  1588
 3611.84	  1590
 3611.94	  1589
 3612.04	  1590
 3612.14	  1591
 3612.24	  1591
 3612.34	  1591
 3612.44	  1592
 3612.54	  1593
 3612.64	  1593
 3612.74	  1594
 3612.84	  1594
 3612.94	  1595
 3613.04	  1594
 3613.14	  1595
 3613.24	  1595
 3613.34	  1595
 3613.44	  1595
 3613.54	  1597
 3613.64	  1597
 3613.74	  1597
 3613.84	  1598
 3613.94	  1599
 3614.04	  1599
 3614.14	  1600
 3614.24	  1599
 3614.34	  1601
 3614.44	  1601
 3614.54	  1600
 3614.64	  1600
 3614.74	  1601
 3614.84	  1600
 3614.94	  1601
 3615.05	  1600
 3615.15	  1600
 3615.25	  1599
 3615.35	  1600
 3615.45	  1600
 3615.55	  1600
 3615.65	  1597
 3615.75	  1600
 3615.85	  1600
 3615.95	  1600
 3616.05	  1601
 3616.15	  1603
 3616.25	  1602
 3616.35	  1603
 3616.45	  1603
 3616.55	  1604
 3616.65	  1602
 3616.75	  1604
 3616.85	  1603
 3616.95	  1604
 3617.05	  1601
 3617.15	  1605
 3617.25	  1605
 3617.35	  1605
 3617.45	  1606
 3617.55	  1609
 3617.65	  1608
 3617.75	  1608
 3617.85	  1608
 3617.95	  1608
 3618.05	  1606
 3618.15	  1608
 3618.25	  1608
 3618.35	  1609
 3618.45	  1605
 3618.55	  1610
 3618.65	  1609
 3618.75	  1609
 3618.85	  1609
 3618.95	  1611
 3619.05	  1609
 3619.15	  1610
 3619.25	  1610
 3619.35	  1611
 3619.45	  1610
 3619.55	  1612
 3619.65	  1613
 3619.75	  1613
 3619.85	  1610
 3619.95	  1614
 3620.05	  1614
 3620.15	  1614
 3620.25	  1614
 3620.35	  1616
 3620.45	  1614
 3620.55	  1615
 3620.65	  1615
