field,G intensity,a.u.
 3338.76	  2055
 3338.86	  2057
 3338.96	  2061
 3339.06	  2061
 3339.16	  2060
 3339.26	  2056
 3339.36	  2051
 3339.46	  2053
 3339.56	  2063
 3339.66	  2061
 3339.76	  2063
 3339.86	  2062
 3339.96	  2060
 3340.06	  2064
 3340.16	  2064
 3340.26	  2063
 3340.36	  2062
 3340.46	  2065
 3340.56	  2062
 3340.66	  2067
 3340.76	  2065
 3340.86	  2061
 3340.96	  2062
 3341.07	  2064
 3341.17	  2062
 3341.27	  2053
 3341.37	  2056
 3341.47	  2058
 3341.57	  2057
 3341.67	  2063
 3341.77	  2068
 3341.87	  2065
 3341.97	  2063
 3342.07	  2062
 3342.17	  2066
 3342.27	  2062
 3342.37	  2058
 3342.47	  2054
 3342.57	  2053
 3342.67	  2058
 3342.77	  2065
 3342.87	  2059
 3342.97	  2062
 3343.07	  2062
 3343.17	  2061
 3343.27	  2064
 3343.37	  2063
 3343.47	  2064
 3343.57	  2066
 3343.67	  2063
 3343.77	  2061
 3343.87	  2061
 3343.97	  2055
 3344.07	  2057
 3344.17	  2063
 3344.27	  2063
 3344.37	  2067
 3344.47	  2062
 3344.57	  2060
 3344.67	  2061
 3344.77	  2060
 3344.87	  2058
 3344.97	  2060
 3345.07	  2063
 3345.17	  2061
 3345.27	  2060
 3345.37	  2055
 3345.47	  2052
 3345.57	  2055
 3345.67	  2055
 3345.77	  2056
 3345.87	  2063
 3345.97	  2062
 3346.07	  2058
 3346.17	  2059
 3346.27	  2063
 3346.37	  2057
 3346.47	  2059
 3346.57	  2056
 3346.67	  2056
 3346.77	  2056
 3346.87	  2060
 3346.97	  2067
 3347.07	  2064
 3347.17	  2064
 3347.27	  2062
 3347.37	  2064
 3347.47	  2061
 3347.57	  2061
 3347.67	  2060
 3347.77	  2059
 3347.87	  2055
 3347.97	  2054
 3348.07	  2060
 3348.17	  2069
 3348.27	  2063
 3348.37	  2052
 3348.47	  2056
 3348.57	  2059
 3348.67	  2064
 3348.77	  2060
 3348.87	  2054
 3348.97	  2053
 3349.08	  2055
 3349.18	  2055
 3349.28	  2054
 3349.38	  2053
 3349.48	  2054
 3349.58	  2053
 3349.68	  2055
 3349.78	  2057
 3349.88	  2053
 3349.98	  2054
 3350.08	  2057
 3350.18	  2060
 3350.28	  2060
 3350.38	  2059
 3350.48	  2058
 3350.58	  2061
 3350.68	  2061
 3350.78	  2053
 3350.88	  2052
 3350.98	  2052
 3351.08	  2062
 3351.18	  2059
 3351.28	  2060
 3351.38	  2053
 3351.48	  2049
 3351.58	  2055
 3351.68	  2055
 3351.78	  2059
 3351.88	  2056
 3351.98	  2056
 3352.08	  2054
 3352.18	  2054
 3352.28	  2051
 3352.38	  2055
 3352.48	  2058
 3352.58	  2061
 3352.68	  2061
 3352.78	  2059
 3352.88	  2058
 3352.98	  2057
 3353.08	  2058
 3353.18	  2063
 3353.28	  2062
 3353.38	  2055
 3353.48	  2051
 3353.58	  2058
 3353.68	  2060
 3353.78	  2062
 3353.88	  2057
 3353.98	  2053
 3354.08	  2054
 3354.18	  2060
 3354.28	  2059
 3354.38	  2060
 3354.48	  2059
 3354.58	  2059
 3354.68	  2055
 3354.78	  2053
 3354.88	  2055
 3354.98	  2060
 3355.08	  2061
 3355.18	  2056
 3355.28	  2054
 3355.38	  2055
 3355.48	  2062
 3355.58	  2064
 3355.68	  2064
 3355.78	  2058
 3355.88	  2053
 3355.98	  2056
 3356.08	  2052
 3356.18	  2053
 3356.28	  2057
 3356.38	  2056
 3356.48	  2056
 3356.58	  2056
 3356.68	  2054
 3356.78	  2055
 3356.88	  2054
 3356.98	  2045
 3357.09	  2047
 3357.19	  2052
 3357.29	  2052
 3357.39	  2051
 3357.49	  2053
 3357.59	  2058
 3357.69	  2059
 3357.79	  2056
 3357.89	  2052
 3357.99	  2053
 3358.09	  2050
 3358.19	  2053
 3358.29	  2052
 3358.39	  2056
 3358.49	  2057
 3358.59	  2059
 3358.69	  2057
 3358.79	  2054
 3358.89	  2057
 3358.99	  2053
 3359.09	  2047
 3359.19	  2051
 3359.29	  2052
 3359.39	  2048
 3359.49	  2052
 3359.59	  2054
 3359.69	  2056
 3359.79	  2053
 3359.89	  2048
 3359.99	  2050
 3360.09	  2051
 3360.19	  2050
 3360.29	  2051
 3360.39	  2052
 3360.49	  2053
 3360.59	  2050
 3360.69	  2051
 3360.79	  2044
 3360.89	  2044
 3360.99	  2048
 3361.09	  2042
 3361.19	  2048
 3361.29	  2048
 3361.39	  2044
 3361.49	  2045
 3361.59	  2047
 3361.69	  2049
 3361.79	  2048
 3361.89	  2045
 3361.99	  2044
 3362.09	  2047
 3362.19	  2047
 3362.29	  2044
 3362.39	  2044
 3362.49	  2043
 3362.59	  2044
 3362.69	  2046
 3362.79	  2042
 3362.89	  2037
 3362.99	  2046
 3363.09	  2046
 3363.19	  2043
 3363.29	  2042
 3363.39	  2049
 3363.49	  2045
 3363.59	  2045
 3363.69	  2045
 3363.79	  2046
 3363.89	  2047
 3363.99	  2046
 3364.09	  2050
 3364.19	  2052
 3364.29	  2054
 3364.39	  2050
 3364.49	  2045
 3364.59	  2045
 3364.69	  2038
 3364.79	  2034
 3364.89	  2042
 3364.99	  2044
  3365.1	  2049
  3365.2	  2049
  3365.3	  2048
  3365.4	  2048
  3365.5	  2043
  3365.6	  2033
  3365.7	  2034
  3365.8	  2028
  3365.9	  2032
  3366.0	  2036
  3366.1	  2033
  3366.2	  2038
  3366.3	  2038
  3366.4	  2038
  3366.5	  2038
  3366.6	  2038
  3366.7	  2038
  3366.8	  2041
  3366.9	  2046
  3367.0	  2043
  3367.1	  2039
  3367.2	  2036
  3367.3	  2036
  3367.4	  2036
  3367.5	  2038
  3367.6	  2035
  3367.7	  2038
  3367.8	  2042
  3367.9	  2037
  3368.0	  2038
  3368.1	  2038
  3368.2	  2036
  3368.3	  2034
  3368.4	  2036
  3368.5	  2036
  3368.6	  2036
  3368.7	  2034
  3368.8	  2033
  3368.9	  2031
  3369.0	  2032
  3369.1	  2032
  3369.2	  2030
  3369.3	  2031
  3369.4	  2030
  3369.5	  2025
  3369.6	  2027
  3369.7	  2030
  3369.8	  2029
  3369.9	  2027
  3370.0	  2023
  3370.1	  2025
  3370.2	  2025
  3370.3	  2022
  3370.4	  2022
  3370.5	  2025
  3370.6	  2027
  3370.7	  2022
  3370.8	  2022
  3370.9	  2017
  3371.0	  2011
  3371.1	  2018
  3371.2	  2023
  3371.3	  2019
  3371.4	  2021
  3371.5	  2022
  3371.6	  2027
  3371.7	  2024
  3371.8	  2017
  3371.9	  2012
  3372.0	  2017
  3372.1	  2018
  3372.2	  2015
  3372.3	  2014
  3372.4	  2014
  3372.5	  2009
  3372.6	  2012
  3372.7	  2015
  3372.8	  2010
  3372.9	  2014
 3373.01	  2012
 3373.11	  2011
 3373.21	  2013
 3373.31	  2010
 3373.41	  2002
 3373.51	  2004
 3373.61	  2002
 3373.71	  1999
 3373.81	  1996
 3373.91	  1996
 3374.01	  1992
 3374.11	  1994
 3374.21	  1997
 3374.31	  1989
 3374.41	  1984
 3374.51	  1981
 3374.61	  1982
 3374.71	  1977
 3374.81	  1972
 3374.91	  1977
 3375.01	  1978
 3375.11	  1973
 3375.21	  1967
 3375.31	  1967
 3375.41	  1959
 3375.51	  1953
 3375.61	  1947
 3375.71	  1947
 3375.81	  1940
 3375.91	  1937
 3376.01	  1936
 3376.11	  1929
 3376.21	  1920
 3376.31	  1911
 3376.41	  1907
 3376.51	  1898
 3376.61	  1887
 3376.71	  1873
 3376.81	  1861
 3376.91	  1857
 3377.01	  1847
 3377.11	  1825
 3377.21	  1810
 3377.31	  1791
 3377.41	  1770
 3377.51	  1750
 3377.61	  1727
 3377.71	  1701
 3377.81	  1672
 3377.91	  1630
 3378.01	  1587
 3378.11	  1532
 3378.21	  1485
 3378.31	  1436
 3378.41	  1392
 3378.51	  1352
 3378.61	  1315
 3378.71	  1272
 3378.81	  1232
 3378.91	  1203
 3379.01	  1185
 3379.11	  1175
 3379.21	  1177
 3379.31	  1192
 3379.41	  1226
 3379.51	  1272
 3379.61	  1326
 3379.71	  1394
 3379.81	  1466
 3379.91	  1551
 3380.01	  1647
 3380.11	  1753
 3380.21	  1879
 3380.31	  2020
 3380.41	  2153
 3380.51	  2276
 3380.61	  2390
 3380.71	  2491
 3380.81	  2577
 3380.91	  2656
 3381.02	  2722
 3381.12	  2778
 3381.22	  2821
 3381.32	  2856
 3381.42	  2873
 3381.52	  2880
 3381.62	  2880
 3381.72	  2870
 3381.82	  2852
 3381.92	  2835
 3382.02	  2816
 3382.12	  2786
 3382.22	  2750
 3382.32	  2716
 3382.42	  2677
 3382.52	  2638
 3382.62	  2590
 3382.72	  2548
 3382.82	  2512
 3382.92	  2477
 3383.02	  2447
 3383.12	  2415
 3383.22	  2388
 3383.32	  2362
 3383.42	  2340
 3383.52	  2317
 3383.62	  2294
 3383.72	  2274
 3383.82	  2257
 3383.92	  2244
 3384.02	  2228
 3384.12	  2215
 3384.22	  2212
 3384.32	  2205
 3384.42	  2188
 3384.52	  2178
 3384.62	  2171
 3384.72	  2171
 3384.82	  2165
 3384.92	  2157
 3385.02	  2154
 3385.12	  2149
 3385.22	  2139
 3385.32	  2130
 3385.42	  2128
 3385.52	  2129
 3385.62	  2122
 3385.72	  2122
 3385.82	  2118
 3385.92	  2115
 3386.02	  2111
 3386.12	  2107
 3386.22	  2104
 3386.32	  2105
 3386.42	  2099
 3386.52	  2097
 3386.62	  2094
 3386.72	  2096
 3386.82	  2100
 3386.92	  2098
 3387.02	  2091
 3387.12	  2088
 3387.22	  2087
 3387.32	  2088
 3387.42	  2086
 3387.52	  2086
 3387.62	  2086
 3387.72	  2086
 3387.82	  2086
 3387.92	  2087
 3388.02	  2082
 3388.12	  2077
 3388.22	  2078
 3388.32	  2078
 3388.42	  2075
 3388.52	  2076
 3388.62	  2069
 3388.72	  2069
 3388.82	  2068
 3388.92	  2068
 3389.03	  2076
 3389.13	  2078
 3389.23	  2079
 3389.33	  2080
 3389.43	  2076
 3389.53	  2068
 3389.63	  2069
 3389.73	  2073
 3389.83	  2070
 3389.93	  2069
 3390.03	  2073
 3390.13	  2073
 3390.23	  2066
 3390.33	  2066
 3390.43	  2065
 3390.53	  2064
 3390.63	  2067
 3390.73	  2066
 3390.83	  2066
 3390.93	  2067
 3391.03	  2061
 3391.13	  2063
 3391.23	  2055
 3391.33	  2056
 3391.43	  2057
 3391.53	  2059
 3391.63	  2062
 3391.73	  2061
 3391.83	  2062
 3391.93	  2061
 3392.03	  2061
 3392.13	  2062
 3392.23	  2061
 3392.33	  2055
 3392.43	  2052
 3392.53	  2050
 3392.63	  2053
 3392.73	  2058
 3392.83	  2061
 3392.93	  2060
 3393.03	  2063
 3393.13	  2058
 3393.23	  2059
 3393.33	  2055
 3393.43	  2052
 3393.53	  2053
 3393.63	  2055
 3393.73	  2050
 3393.83	  2049
 3393.93	  2047
 3394.03	  2050
 3394.13	  2051
 3394.23	  2052
 3394.33	  2053
 3394.43	  2055
 3394.53	  2055
 3394.63	  2052
 3394.73	  2051
 3394.83	  2057
 3394.93	  2055
 3395.03	  2055
 3395.13	  2059
 3395.23	  2054
 3395.33	  2050
 3395.43	  2050
 3395.53	  2052
 3395.63	  2050
 3395.73	  2049
 3395.83	  2049
 3395.93	  2052
 3396.03	  2049
 3396.13	  2050
 3396.23	  2051
 3396.33	  2055
 3396.43	  2053
 3396.53	  2055
 3396.63	  2058
 3396.73	  2055
 3396.83	  2054
 3396.93	  2054
 3397.04	  2055
 3397.14	  2049
 3397.24	  2043
 3397.34	  2045
 3397.44	  2048
 3397.54	  2048
 3397.64	  2047
 3397.74	  2048
 3397.84	  2048
 3397.94	  2045
 3398.04	  2050
 3398.14	  2052
 3398.24	  2050
 3398.34	  2050
 3398.44	  2045
 3398.54	  2044
 3398.64	  2044
 3398.74	  2050
 3398.84	  2053
 3398.94	  2053
 3399.04	  2054
 3399.14	  2054
 3399.24	  2045
 3399.34	  2044
 3399.44	  2041
 3399.54	  2038
 3399.64	  2043
 3399.74	  2050
 3399.84	  2050
 3399.94	  2052
 3400.04	  2047
 3400.14	  2044
 3400.24	  2040
 3400.34	  2046
 3400.44	  2052
 3400.54	  2051
 3400.64	  2044
 3400.74	  2047
 3400.84	  2043
 3400.94	  2042
 3401.04	  2039
 3401.14	  2044
 3401.24	  2044
 3401.34	  2044
 3401.44	  2044
 3401.54	  2042
 3401.64	  2040
 3401.74	  2039
 3401.84	  2039
 3401.94	  2044
 3402.04	  2042
 3402.14	  2043
 3402.24	  2045
 3402.34	  2043
 3402.44	  2044
 3402.54	  2044
 3402.64	  2048
 3402.74	  2049
 3402.84	  2049
 3402.94	  2050
 3403.04	  2049
 3403.14	  2046
 3403.24	  2043
 3403.34	  2046
 3403.44	  2046
 3403.54	  2050
 3403.64	  2046
 3403.74	  2043
 3403.84	  2039
 3403.94	  2044
 3404.04	  2043
 3404.14	  2042
 3404.24	  2034
 3404.34	  2032
 3404.44	  2035
 3404.54	  2033
 3404.64	  2041
 3404.74	  2047
 3404.84	  2047
 3404.94	  2041
 3405.05	  2043
 3405.15	  2040
 3405.25	  2042
 3405.35	  2043
 3405.45	  2044
 3405.55	  2043
 3405.65	  2039
 3405.75	  2038
 3405.85	  2036
 3405.95	  2035
 3406.05	  2036
 3406.15	  2035
 3406.25	  2037
 3406.35	  2036
 3406.45	  2037
 3406.55	  2038
 3406.65	  2034
 3406.75	  2038
 3406.85	  2038
 3406.95	  2042
 3407.05	  2040
 3407.15	  2039
 3407.25	  2040
 3407.35	  2039
 3407.45	  2039
 3407.55	  2040
 3407.65	  2046
 3407.75	  2045
 3407.85	  2039
 3407.95	  2040
 3408.05	  2041
 3408.15	  2048
 3408.25	  2043
 3408.35	  2043
 3408.45	  2037
 3408.55	  2035
 3408.65	  2035
 3408.75	  2033
 3408.85	  2033
 3408.95	  2038
 3409.05	  2037
 3409.15	  2036
 3409.25	  2035
 3409.35	  2033
 3409.45	  2033
 3409.55	  2033
 3409.65	  2033
 3409.75	  2035
 3409.85	  2035
 3409.95	  2034
 3410.05	  2037
 3410.15	  2037
 3410.25	  2040
 3410.35	  2036
 3410.45	  2032
 3410.55	  2034
 3410.65	  2035
 3410.75	  2031
 3410.85	  2028
 3410.95	  2028
 3411.05	  2036
 3411.15	  2032
 3411.25	  2033
 3411.35	  2030
 3411.45	  2037
 3411.55	  2042
 3411.65	  2035
 3411.75	  2031
 3411.85	  2029
 3411.95	  2031
 3412.05	  2031
 3412.15	  2032
 3412.25	  2037
 3412.35	  2033
 3412.45	  2032
 3412.55	  2029
 3412.65	  2030
 3412.75	  2029
 3412.85	  2031
 3412.95	  2034
 3413.06	  2033
 3413.16	  2035
 3413.26	  2030
 3413.36	  2028
 3413.46	  2028
 3413.56	  2029
 3413.66	  2033
 3413.76	  2033
 3413.86	  2035
 3413.96	  2035
 3414.06	  2033
 3414.16	  2035
 3414.26	  2038
 3414.36	  2036
 3414.46	  2041
 3414.56	  2035
 3414.66	  2033
 3414.76	  2034
 3414.86	  2036
 3414.96	  2032
 3415.06	  2031
 3415.16	  2036
 3415.26	  2033
 3415.36	  2030
 3415.46	  2029
 3415.56	  2031
 3415.66	  2031
 3415.76	  2029
 3415.86	  2026
 3415.96	  2036
 3416.06	  2037
 3416.16	  2028
 3416.26	  2025
 3416.36	  2024
 3416.46	  2028
 3416.56	  2029
